File: carbon_superP/N2_1000rpm.txt
Index;Column 2 (V);Column 3 (V);Column 4 (V);Column 5 (V);Column 6 (V/s);Column 7 (V);Time (s);Potential applied (V);WE(1).Current (A);WE(1).Potential (V);Scan;Column 13 (RPM);ω (rad/s);Frequency (Hz);Z' (Ω);-Z'' (Ω);Z (Ω);-Phase (°);Time (s);Y' (Mho);-Y'' (Mho)
1;0;0.01;-1;-0.01;0.01;-0.00244;2806.43;-0.0146484;7.04651e-07;-0.0144257;3;1000;104.72;100000;34.7026;2.71072;34.8083;4.46646;2187.74;0.0286415;0.00223727
14;;;;;;;2809.61;-0.0463867;3.53699e-07;-0.0460449;3;;;5011.9;35.2681;3.51864;35.4432;5.69745;2215.75;0.0280748;0.00280098
27;;;;;;;2812.78;-0.078125;1.44043e-07;-0.0779419;3;;;251.19;43.8202;27.7525;51.8692;32.3472;2242.36;0.0162875;0.0103154
40;;;;;;;2815.96;-0.109863;-1.06812e-08;-0.109589;3;;;12.589;117.122;317.876;338.767;69.7736;2279.23;0.00102056;0.00276985
53;;;;;;;2819.13;-0.141602;-1.56158e-07;-0.141052;3;;;0.63096;876.715;4421.35;4507.43;78.7842;2325.2;4.31519e-05;0.000217619
66;;;;;;;2822.3;-0.17334;-2.77893e-07;-0.172546;3;;;;;;;;;;
79;;;;;;;2825.48;-0.205078;-3.74451e-07;-0.204498;3;;;;;;;;;;
92;;;;;;;2828.65;-0.236816;-4.94995e-07;-0.236267;3;;;;;;;;;;
105;;;;;;;2831.83;-0.268555;-5.95398e-07;-0.267914;3;;;;;;;;;;
118;;;;;;;2835;-0.300293;-7.13196e-07;-0.29953;3;;;;;;;;;;
131;;;;;;;2838.17;-0.332031;-8.42896e-07;-0.331207;3;;;;;;;;;;
144;;;;;;;2841.35;-0.36377;-9.95789e-07;-0.362885;3;;;;;;;;;;
157;;;;;;;2844.52;-0.395508;-1.19324e-06;-0.394653;3;;;;;;;;;;
170;;;;;;;2847.69;-0.427246;-1.42914e-06;-0.426239;3;;;;;;;;;;
183;;;;;;;2850.87;-0.458984;-1.67572e-06;-0.457947;3;;;;;;;;;;
196;;;;;;;2854.04;-0.490723;-1.88049e-06;-0.489563;3;;;;;;;;;;
209;;;;;;;2857.22;-0.522461;-2.03552e-06;-0.52124;3;;;;;;;;;;
222;;;;;;;2860.39;-0.554199;-2.13867e-06;-0.552887;3;;;;;;;;;;
235;;;;;;;2863.56;-0.5859375;-2.21436e-06;-0.584625;3;;;;;;;;;;
248;;;;;;;2866.74;-0.617676;-2.29675e-06;-0.61618;3;;;;;;;;;;
261;;;;;;;2869.91;-0.649414;-2.35962e-06;-0.647888;3;;;;;;;;;;
274;;;;;;;2873.09;-0.681152;-2.42737e-06;-0.679657;3;;;;;;;;;;
287;;;;;;;2876.26;-0.712891;-2.49268e-06;-0.711365;3;;;;;;;;;;
300;;;;;;;2879.43;-0.744629;-2.62695e-06;-0.743042;3;;;;;;;;;;
313;;;;;;;2882.61;-0.776367;-2.71118e-06;-0.775757;3;;;;;;;;;;
326;;;;;;;2885.78;-0.808105;-2.85492e-06;-0.807495;3;;;;;;;;;;
339;;;;;;;2888.95;-0.839844;-3.02216e-06;-0.839844;3;;;;;;;;;;
352;;;;;;;2892.13;-0.871582;-3.20099e-06;-0.870667;3;;;;;;;;;;
365;;;;;;;2895.3;-0.90332;-3.38165e-06;-0.9021;3;;;;;;;;;;
378;;;;;;;2898.48;-0.935059;-3.58398e-06;-0.934143;3;;;;;;;;;;
391;;;;;;;2901.65;-0.966797;-3.7973e-06;-0.965881;3;;;;;;;;;;
404;;;;;;;2904.82;-0.998535;-4.06036e-06;-0.997925;3;;;;;;;;;;
417;;;;;;;2908;-0.97168;-1.77795e-06;-0.970459;3;;;;;;;;;;
430;;;;;;;2911.17;-0.939941;-1.09039e-06;-0.939331;3;;;;;;;;;;
443;;;;;;;2914.34;-0.908203;-7.0343e-07;-0.907288;3;;;;;;;;;;
456;;;;;;;2917.52;-0.876465;-4.30603e-07;-0.87616;3;;;;;;;;;;
469;;;;;;;2920.69;-0.844727;-2.28882e-07;-0.843811;3;;;;;;;;;;
482;;;;;;;2923.87;-0.812988;-7.96204e-08;-0.812073;3;;;;;;;;;;
495;;;;;;;2927.04;-0.78125;4.52271e-08;-0.78064;3;;;;;;;;;;
508;;;;;;;2930.21;-0.749512;1.39008e-07;-0.748474;3;;;;;;;;;;
521;;;;;;;2933.39;-0.717773;2.17926e-07;-0.716736;3;;;;;;;;;;
534;;;;;;;2936.56;-0.686035;2.89215e-07;-0.68515;3;;;;;;;;;;
547;;;;;;;2939.74;-0.654297;3.46985e-07;-0.653229;3;;;;;;;;;;
560;;;;;;;2942.91;-0.622559;4.04358e-07;-0.621521;3;;;;;;;;;;
573;;;;;;;2946.08;-0.59082;4.66919e-07;-0.589813;3;;;;;;;;;;
586;;;;;;;2949.26;-0.559082;5.05676e-07;-0.558105;3;;;;;;;;;;
599;;;;;;;2952.43;-0.527344;5.53894e-07;-0.526276;3;;;;;;;;;;
612;;;;;;;2955.6;-0.495605;6.16455e-07;-0.494781;3;;;;;;;;;;
625;;;;;;;2958.78;-0.463867;6.63757e-07;-0.463043;3;;;;;;;;;;
638;;;;;;;2961.95;-0.432129;7.30591e-07;-0.431366;3;;;;;;;;;;
651;;;;;;;2965.13;-0.400391;8.02917e-07;-0.399719;3;;;;;;;;;;
664;;;;;;;2968.3;-0.368652;8.77686e-07;-0.368042;3;;;;;;;;;;
677;;;;;;;2971.47;-0.336914;9.49097e-07;-0.336395;3;;;;;;;;;;
690;;;;;;;2974.65;-0.305176;1.01318e-06;-0.304657;3;;;;;;;;;;
703;;;;;;;2977.82;-0.2734375;1.06537e-06;-0.272919;3;;;;;;;;;;
716;;;;;;;2981;-0.241699;1.11328e-06;-0.241302;3;;;;;;;;;;
729;;;;;;;2984.17;-0.209961;1.15753e-06;-0.209564;3;;;;;;;;;;
742;;;;;;;2987.34;-0.178223;1.21277e-06;-0.177917;3;;;;;;;;;;
755;;;;;;;2990.52;-0.146484;1.25488e-06;-0.14624;3;;;;;;;;;;
768;;;;;;;2993.69;-0.114746;1.30341e-06;-0.114563;3;;;;;;;;;;
781;;;;;;;2996.86;-0.0830078;1.35132e-06;-0.0829773;3;;;;;;;;;;
794;;;;;;;3000.04;-0.0512695;1.39435e-06;-0.0512695;3;;;;;;;;;;
807;;;;;;;3003.21;-0.01953125;1.44348e-06;-0.0193726;3;;;;;;;;;;
820;;;;;;;3006.39;0.012207;1.50604e-06;0.0123749;3;;;;;;;;;;
833;;;;;;;;;;;;;;;;;;;;;
846;;;;;;;;;;;;;;;;;;;;;
859;;;;;;;;;;;;;;;;;;;;;
872;;;;;;;;;;;;;;;;;;;;;
885;;;;;;;;;;;;;;;;;;;;;
898;;;;;;;;;;;;;;;;;;;;;
911;;;;;;;;;;;;;;;;;;;;;
924;;;;;;;;;;;;;;;;;;;;;
937;;;;;;;;;;;;;;;;;;;;;
950;;;;;;;;;;;;;;;;;;;;;
963;;;;;;;;;;;;;;;;;;;;;
976;;;;;;;;;;;;;;;;;;;;;
989;;;;;;;;;;;;;;;;;;;;;
1002;;;;;;;;;;;;;;;;;;;;;
1015;;;;;;;;;;;;;;;;;;;;;
1028;;;;;;;;;;;;;;;;;;;;;
1041;;;;;;;;;;;;;;;;;;;;;
1054;;;;;;;;;;;;;;;;;;;;;
1067;;;;;;;;;;;;;;;;;;;;;
1080;;;;;;;;;;;;;;;;;;;;;
1093;;;;;;;;;;;;;;;;;;;;;
1106;;;;;;;;;;;;;;;;;;;;;
1119;;;;;;;;;;;;;;;;;;;;;
1132;;;;;;;;;;;;;;;;;;;;;
1145;;;;;;;;;;;;;;;;;;;;;
1158;;;;;;;;;;;;;;;;;;;;;
1171;;;;;;;;;;;;;;;;;;;;;
1184;;;;;;;;;;;;;;;;;;;;;
1197;;;;;;;;;;;;;;;;;;;;;
1210;;;;;;;;;;;;;;;;;;;;;
1223;;;;;;;;;;;;;;;;;;;;;
1236;;;;;;;;;;;;;;;;;;;;;
1249;;;;;;;;;;;;;;;;;;;;;
1262;;;;;;;;;;;;;;;;;;;;;
1275;;;;;;;;;;;;;;;;;;;;;
1288;;;;;;;;;;;;;;;;;;;;;
1301;;;;;;;;;;;;;;;;;;;;;
1314;;;;;;;;;;;;;;;;;;;;;
1327;;;;;;;;;;;;;;;;;;;;;
1340;;;;;;;;;;;;;;;;;;;;;
1353;;;;;;;;;;;;;;;;;;;;;
1366;;;;;;;;;;;;;;;;;;;;;
1379;;;;;;;;;;;;;;;;;;;;;
1392;;;;;;;;;;;;;;;;;;;;;
1405;;;;;;;;;;;;;;;;;;;;;
1418;;;;;;;;;;;;;;;;;;;;;
1431;;;;;;;;;;;;;;;;;;;;;
1444;;;;;;;;;;;;;;;;;;;;;
1457;;;;;;;;;;;;;;;;;;;;;
1470;;;;;;;;;;;;;;;;;;;;;
1483;;;;;;;;;;;;;;;;;;;;;
1496;;;;;;;;;;;;;;;;;;;;;
1509;;;;;;;;;;;;;;;;;;;;;
1522;;;;;;;;;;;;;;;;;;;;;
1535;;;;;;;;;;;;;;;;;;;;;
1548;;;;;;;;;;;;;;;;;;;;;
1561;;;;;;;;;;;;;;;;;;;;;
1574;;;;;;;;;;;;;;;;;;;;;
1587;;;;;;;;;;;;;;;;;;;;;
1600;;;;;;;;;;;;;;;;;;;;;
1613;;;;;;;;;;;;;;;;;;;;;
1626;;;;;;;;;;;;;;;;;;;;;
1639;;;;;;;;;;;;;;;;;;;;;
1652;;;;;;;;;;;;;;;;;;;;;
1665;;;;;;;;;;;;;;;;;;;;;
1678;;;;;;;;;;;;;;;;;;;;;
1691;;;;;;;;;;;;;;;;;;;;;
1704;;;;;;;;;;;;;;;;;;;;;
1717;;;;;;;;;;;;;;;;;;;;;
1730;;;;;;;;;;;;;;;;;;;;;
1743;;;;;;;;;;;;;;;;;;;;;
1756;;;;;;;;;;;;;;;;;;;;;
1769;;;;;;;;;;;;;;;;;;;;;
1782;;;;;;;;;;;;;;;;;;;;;
1795;;;;;;;;;;;;;;;;;;;;;
1808;;;;;;;;;;;;;;;;;;;;;
1821;;;;;;;;;;;;;;;;;;;;;
1834;;;;;;;;;;;;;;;;;;;;;
1847;;;;;;;;;;;;;;;;;;;;;
1860;;;;;;;;;;;;;;;;;;;;;
1873;;;;;;;;;;;;;;;;;;;;;
1886;;;;;;;;;;;;;;;;;;;;;
1899;;;;;;;;;;;;;;;;;;;;;
1912;;;;;;;;;;;;;;;;;;;;;
1925;;;;;;;;;;;;;;;;;;;;;
1938;;;;;;;;;;;;;;;;;;;;;
1951;;;;;;;;;;;;;;;;;;;;;
1964;;;;;;;;;;;;;;;;;;;;;
1977;;;;;;;;;;;;;;;;;;;;;
1990;;;;;;;;;;;;;;;;;;;;;
2003;;;;;;;;;;;;;;;;;;;;;
2016;;;;;;;;;;;;;;;;;;;;;
2029;;;;;;;;;;;;;;;;;;;;;
2042;;;;;;;;;;;;;;;;;;;;;
2055;;;;;;;;;;;;;;;;;;;;;
2068;;;;;;;;;;;;;;;;;;;;;
2081;;;;;;;;;;;;;;;;;;;;;
2094;;;;;;;;;;;;;;;;;;;;;
2107;;;;;;;;;;;;;;;;;;;;;
2120;;;;;;;;;;;;;;;;;;;;;
2133;;;;;;;;;;;;;;;;;;;;;
2146;;;;;;;;;;;;;;;;;;;;;
2159;;;;;;;;;;;;;;;;;;;;;
2172;;;;;;;;;;;;;;;;;;;;;
2185;;;;;;;;;;;;;;;;;;;;;
2198;;;;;;;;;;;;;;;;;;;;;
2211;;;;;;;;;;;;;;;;;;;;;
2224;;;;;;;;;;;;;;;;;;;;;
2237;;;;;;;;;;;;;;;;;;;;;
2250;;;;;;;;;;;;;;;;;;;;;
2263;;;;;;;;;;;;;;;;;;;;;
2276;;;;;;;;;;;;;;;;;;;;;
2289;;;;;;;;;;;;;;;;;;;;;
2302;;;;;;;;;;;;;;;;;;;;;
2315;;;;;;;;;;;;;;;;;;;;;
2328;;;;;;;;;;;;;;;;;;;;;
2341;;;;;;;;;;;;;;;;;;;;;
2354;;;;;;;;;;;;;;;;;;;;;
2367;;;;;;;;;;;;;;;;;;;;;
2380;;;;;;;;;;;;;;;;;;;;;
2393;;;;;;;;;;;;;;;;;;;;;
2406;;;;;;;;;;;;;;;;;;;;;
2419;;;;;;;;;;;;;;;;;;;;;
2432;;;;;;;;;;;;;;;;;;;;;
2445;;;;;;;;;;;;;;;;;;;;;
2458;;;;;;;;;;;;;;;;;;;;;
2471;;;;;;;;;;;;;;;;;;;;;
2484;;;;;;;;;;;;;;;;;;;;;
2497;;;;;;;;;;;;;;;;;;;;;
2510;;;;;;;;;;;;;;;;;;;;;
2523;;;;;;;;;;;;;;;;;;;;;
2536;;;;;;;;;;;;;;;;;;;;;
2549;;;;;;;;;;;;;;;;;;;;;
2562;;;;;;;;;;;;;;;;;;;;;
2575;;;;;;;;;;;;;;;;;;;;;
2588;;;;;;;;;;;;;;;;;;;;;
2601;;;;;;;;;;;;;;;;;;;;;
2614;;;;;;;;;;;;;;;;;;;;;
2627;;;;;;;;;;;;;;;;;;;;;
2640;;;;;;;;;;;;;;;;;;;;;
2653;;;;;;;;;;;;;;;;;;;;;
2666;;;;;;;;;;;;;;;;;;;;;
2679;;;;;;;;;;;;;;;;;;;;;
2692;;;;;;;;;;;;;;;;;;;;;
2705;;;;;;;;;;;;;;;;;;;;;
2718;;;;;;;;;;;;;;;;;;;;;
2731;;;;;;;;;;;;;;;;;;;;;
2744;;;;;;;;;;;;;;;;;;;;;
2757;;;;;;;;;;;;;;;;;;;;;
2770;;;;;;;;;;;;;;;;;;;;;
2783;;;;;;;;;;;;;;;;;;;;;
2796;;;;;;;;;;;;;;;;;;;;;
2809;;;;;;;;;;;;;;;;;;;;;
2822;;;;;;;;;;;;;;;;;;;;;
2835;;;;;;;;;;;;;;;;;;;;;
2848;;;;;;;;;;;;;;;;;;;;;
2861;;;;;;;;;;;;;;;;;;;;;
2874;;;;;;;;;;;;;;;;;;;;;
2887;;;;;;;;;;;;;;;;;;;;;
2900;;;;;;;;;;;;;;;;;;;;;
2913;;;;;;;;;;;;;;;;;;;;;
2926;;;;;;;;;;;;;;;;;;;;;
2939;;;;;;;;;;;;;;;;;;;;;
2952;;;;;;;;;;;;;;;;;;;;;
2965;;;;;;;;;;;;;;;;;;;;;
2978;;;;;;;;;;;;;;;;;;;;;
2991;;;;;;;;;;;;;;;;;;;;;
3004;;;;;;;;;;;;;;;;;;;;;
3017;;;;;;;;;;;;;;;;;;;;;
3030;;;;;;;;;;;;;;;;;;;;;
3043;;;;;;;;;;;;;;;;;;;;;
3056;;;;;;;;;;;;;;;;;;;;;
3069;;;;;;;;;;;;;;;;;;;;;
3082;;;;;;;;;;;;;;;;;;;;;
3095;;;;;;;;;;;;;;;;;;;;;
3108;;;;;;;;;;;;;;;;;;;;;
3121;;;;;;;;;;;;;;;;;;;;;
3134;;;;;;;;;;;;;;;;;;;;;
3147;;;;;;;;;;;;;;;;;;;;;
3160;;;;;;;;;;;;;;;;;;;;;
3173;;;;;;;;;;;;;;;;;;;;;
3186;;;;;;;;;;;;;;;;;;;;;
3199;;;;;;;;;;;;;;;;;;;;;
3212;;;;;;;;;;;;;;;;;;;;;
3225;;;;;;;;;;;;;;;;;;;;;
3238;;;;;;;;;;;;;;;;;;;;;
3251;;;;;;;;;;;;;;;;;;;;;
3264;;;;;;;;;;;;;;;;;;;;;
3277;;;;;;;;;;;;;;;;;;;;;
3290;;;;;;;;;;;;;;;;;;;;;
3303;;;;;;;;;;;;;;;;;;;;;
3316;;;;;;;;;;;;;;;;;;;;;
3325;;;;;;;;;;;;;;;;;;;;;