File: carbon_superP/N2_2000rpm.txt
Index;Column 2 (V);Column 3 (V);Column 4 (V);Column 5 (V);Column 6 (V/s);Column 7 (V);Time (s);Potential applied (V);WE(1).Current (A);WE(1).Potential (V);Scan;Column 13 (RPM);ω (rad/s);Frequency (Hz);Z' (Ω);-Z'' (Ω);Z (Ω);-Phase (°);Time (s);Y' (Mho);-Y'' (Mho)
1;0;0.01;-1;-0.01;0.01;-0.00244;4554.47;-0.0146484;5.67017e-07;-0.0143768;3;2000;209.44;100000;32.2678;2.49925;32.3644;4.42892;3935.1;0.0308059;0.00238602
13;;;;;;;4557.39;-0.0439453;1.9989e-07;-0.0436157;3;;;6309.6;32.3567;2.78306;32.4762;4.91601;3961.3;0.0306785;0.00263872
25;;;;;;;4560.32;-0.0732422;-2.70691e-08;-0.072937;3;;;398.11;38.1644;15.3011;41.1175;21.8472;3985.82;0.0225738;0.00905045
37;;;;;;;4563.25;-0.102539;-1.99585e-07;-0.101959;3;;;25.119;78.4776;128.394;150.479;58.5657;4018.69;0.00346574;0.00567017
49;;;;;;;4566.18;-0.131836;-3.38135e-07;-0.131439;3;;;1.5849;329.891;1248.28;1291.14;75.1965;4055.08;0.000197891;0.000748804
61;;;;;;;4569.11;-0.161133;-4.62036e-07;-0.160767;3;;;0.1;3021.36;14344.8;14659.5;78.106;4129.24;1.40593e-05;6.67506e-05
73;;;;;;;4572.04;-0.19043;-5.67932e-07;-0.189911;3;;;;;;;;;;
85;;;;;;;4574.97;-0.219727;-6.87561e-07;-0.219055;3;;;;;;;;;;
97;;;;;;;4577.9;-0.249023;-7.82166e-07;-0.248383;3;;;;;;;;;;
109;;;;;;;4580.83;-0.27832;-8.84094e-07;-0.277618;3;;;;;;;;;;
121;;;;;;;4583.76;-0.307617;-9.99451e-07;-0.306885;3;;;;;;;;;;
133;;;;;;;4586.69;-0.336914;-1.13464e-06;-0.336029;3;;;;;;;;;;
145;;;;;;;4589.62;-0.366211;-1.27441e-06;-0.365326;3;;;;;;;;;;
157;;;;;;;4592.55;-0.395508;-1.45447e-06;-0.394562;3;;;;;;;;;;
169;;;;;;;4595.48;-0.424805;-1.62964e-06;-0.423767;3;;;;;;;;;;
181;;;;;;;4598.41;-0.454102;-1.75873e-06;-0.452942;3;;;;;;;;;;
193;;;;;;;4601.34;-0.483398;-1.86157e-06;-0.482239;3;;;;;;;;;;
205;;;;;;;4604.27;-0.512695;-1.95374e-06;-0.511322;3;;;;;;;;;;
217;;;;;;;4607.2;-0.541992;-2.05109e-06;-0.54068;3;;;;;;;;;;
229;;;;;;;4610.13;-0.571289;-2.17773e-06;-0.569855;3;;;;;;;;;;
241;;;;;;;4613.06;-0.600586;-2.3175e-06;-0.599121;3;;;;;;;;;;
253;;;;;;;4615.99;-0.629883;-2.47711e-06;-0.628326;3;;;;;;;;;;
265;;;;;;;4618.92;-0.65918;-2.63031e-06;-0.657623;3;;;;;;;;;;
277;;;;;;;4621.85;-0.688477;-2.77588e-06;-0.68689;3;;;;;;;;;;
289;;;;;;;4624.78;-0.717773;-2.91107e-06;-0.716095;3;;;;;;;;;;
301;;;;;;;4627.71;-0.74707;-3.05511e-06;-0.745819;3;;;;;;;;;;
313;;;;;;;4630.64;-0.776367;-3.23975e-06;-0.775452;3;;;;;;;;;;
325;;;;;;;4633.57;-0.805664;-3.44086e-06;-0.804749;3;;;;;;;;;;
337;;;;;;;4636.5;-0.834961;-3.67432e-06;-0.834351;3;;;;;;;;;;
349;;;;;;;4639.43;-0.864258;-3.91541e-06;-0.863342;3;;;;;;;;;;
361;;;;;;;4642.36;-0.893555;-4.15344e-06;-0.892639;3;;;;;;;;;;
373;;;;;;;4645.29;-0.922852;-4.41284e-06;-0.922241;3;;;;;;;;;;
385;;;;;;;4648.22;-0.952148;-4.6875E-06;-0.951843;3;;;;;;;;;;
397;;;;;;;4651.14;-0.981445;-4.96521e-06;-0.98114;3;;;;;;;;;;
409;;;;;;;4654.07;-0.991211;-2.8067e-06;-0.990601;3;;;;;;;;;;
421;;;;;;;4657;-0.961914;-1.00891e-06;-0.960999;3;;;;;;;;;;
433;;;;;;;4659.93;-0.932617;-2.88696e-07;-0.932312;3;;;;;;;;;;
445;;;;;;;4662.86;-0.90332;9.29871e-08;-0.90332;3;;;;;;;;;;
457;;;;;;;4665.79;-0.874023;3.25012e-07;-0.873413;3;;;;;;;;;;
469;;;;;;;4668.72;-0.844727;4.79736e-07;-0.843506;3;;;;;;;;;;
481;;;;;;;4671.65;-0.81543;5.96924e-07;-0.814819;3;;;;;;;;;;
493;;;;;;;4674.58;-0.786133;6.73828e-07;-0.784912;3;;;;;;;;;;
505;;;;;;;4677.51;-0.756836;7.37915e-07;-0.75592;3;;;;;;;;;;
517;;;;;;;4680.44;-0.727539;7.76672e-07;-0.726501;3;;;;;;;;;;
529;;;;;;;4683.37;-0.698242;8.21228e-07;-0.697144;3;;;;;;;;;;
541;;;;;;;4686.3;-0.668945;8.47473e-07;-0.667938;3;;;;;;;;;;
553;;;;;;;4689.23;-0.639648;8.74329e-07;-0.638641;3;;;;;;;;;;
565;;;;;;;4692.16;-0.610352;8.90503e-07;-0.609253;3;;;;;;;;;;
577;;;;;;;4695.09;-0.581055;8.92944e-07;-0.580261;3;;;;;;;;;;
589;;;;;;;4698.02;-0.551758;8.99048e-07;-0.550903;3;;;;;;;;;;
601;;;;;;;4700.95;-0.522461;9.00879e-07;-0.521576;3;;;;;;;;;;
613;;;;;;;4703.88;-0.493164;9.14307e-07;-0.49231;3;;;;;;;;;;
625;;;;;;;4706.81;-0.463867;9.37195e-07;-0.463257;3;;;;;;;;;;
637;;;;;;;4709.74;-0.43457;9.6283e-07;-0.433807;3;;;;;;;;;;
649;;;;;;;4712.67;-0.405273;1.02203e-06;-0.404541;3;;;;;;;;;;
661;;;;;;;4715.6;-0.375977;1.07056e-06;-0.375366;3;;;;;;;;;;
673;;;;;;;4718.53;-0.34668;1.13007e-06;-0.3461;3;;;;;;;;;;
685;;;;;;;4721.46;-0.317383;1.1911e-06;-0.316864;3;;;;;;;;;;
697;;;;;;;4724.39;-0.288086;1.23749e-06;-0.287659;3;;;;;;;;;;
709;;;;;;;4727.32;-0.258789;1.2793e-06;-0.258362;3;;;;;;;;;;
721;;;;;;;4730.25;-0.229492;1.31836e-06;-0.229095;3;;;;;;;;;;
733;;;;;;;4733.18;-0.200195;1.35315e-06;-0.199768;3;;;;;;;;;;
745;;;;;;;4736.11;-0.170898;1.39618e-06;-0.170593;3;;;;;;;;;;
757;;;;;;;4739.04;-0.141602;1.43829e-06;-0.141418;3;;;;;;;;;;
769;;;;;;;4741.97;-0.112305;1.4679e-06;-0.112;3;;;;;;;;;;
781;;;;;;;4744.9;-0.0830078;1.521e-06;-0.0829468;3;;;;;;;;;;
793;;;;;;;4747.82;-0.0537109;1.55945e-06;-0.0535889;3;;;;;;;;;;
805;;;;;;;4750.75;-0.0244141;1.61285e-06;-0.0241272;3;;;;;;;;;;
817;;;;;;;4753.68;0.00488281;1.68152e-06;0.00513306;3;;;;;;;;;;
829;;;;;;;4756.61;-0.009765625;6.81763e-07;-0.00937805;3;;;;;;;;;;
841;;;;;;;;;;;;;;;;;;;;;
853;;;;;;;;;;;;;;;;;;;;;
865;;;;;;;;;;;;;;;;;;;;;
877;;;;;;;;;;;;;;;;;;;;;
889;;;;;;;;;;;;;;;;;;;;;
901;;;;;;;;;;;;;;;;;;;;;
913;;;;;;;;;;;;;;;;;;;;;
925;;;;;;;;;;;;;;;;;;;;;
937;;;;;;;;;;;;;;;;;;;;;
949;;;;;;;;;;;;;;;;;;;;;
961;;;;;;;;;;;;;;;;;;;;;
973;;;;;;;;;;;;;;;;;;;;;
985;;;;;;;;;;;;;;;;;;;;;
997;;;;;;;;;;;;;;;;;;;;;
1009;;;;;;;;;;;;;;;;;;;;;
1021;;;;;;;;;;;;;;;;;;;;;
1033;;;;;;;;;;;;;;;;;;;;;
1045;;;;;;;;;;;;;;;;;;;;;
1057;;;;;;;;;;;;;;;;;;;;;
1069;;;;;;;;;;;;;;;;;;;;;
1081;;;;;;;;;;;;;;;;;;;;;
1093;;;;;;;;;;;;;;;;;;;;;
1105;;;;;;;;;;;;;;;;;;;;;
1117;;;;;;;;;;;;;;;;;;;;;
1129;;;;;;;;;;;;;;;;;;;;;
1141;;;;;;;;;;;;;;;;;;;;;
1153;;;;;;;;;;;;;;;;;;;;;
1165;;;;;;;;;;;;;;;;;;;;;
1177;;;;;;;;;;;;;;;;;;;;;
1189;;;;;;;;;;;;;;;;;;;;;
1201;;;;;;;;;;;;;;;;;;;;;
1213;;;;;;;;;;;;;;;;;;;;;
1225;;;;;;;;;;;;;;;;;;;;;
1237;;;;;;;;;;;;;;;;;;;;;
1249;;;;;;;;;;;;;;;;;;;;;
1261;;;;;;;;;;;;;;;;;;;;;
1273;;;;;;;;;;;;;;;;;;;;;
1285;;;;;;;;;;;;;;;;;;;;;
1297;;;;;;;;;;;;;;;;;;;;;
1309;;;;;;;;;;;;;;;;;;;;;
1321;;;;;;;;;;;;;;;;;;;;;
1333;;;;;;;;;;;;;;;;;;;;;
1345;;;;;;;;;;;;;;;;;;;;;
1357;;;;;;;;;;;;;;;;;;;;;
1369;;;;;;;;;;;;;;;;;;;;;
1381;;;;;;;;;;;;;;;;;;;;;
1393;;;;;;;;;;;;;;;;;;;;;
1405;;;;;;;;;;;;;;;;;;;;;
1417;;;;;;;;;;;;;;;;;;;;;
1429;;;;;;;;;;;;;;;;;;;;;
1441;;;;;;;;;;;;;;;;;;;;;
1453;;;;;;;;;;;;;;;;;;;;;
1465;;;;;;;;;;;;;;;;;;;;;
1477;;;;;;;;;;;;;;;;;;;;;
1489;;;;;;;;;;;;;;;;;;;;;
1501;;;;;;;;;;;;;;;;;;;;;
1513;;;;;;;;;;;;;;;;;;;;;
1525;;;;;;;;;;;;;;;;;;;;;
1537;;;;;;;;;;;;;;;;;;;;;
1549;;;;;;;;;;;;;;;;;;;;;
1561;;;;;;;;;;;;;;;;;;;;;
1573;;;;;;;;;;;;;;;;;;;;;
1585;;;;;;;;;;;;;;;;;;;;;
1597;;;;;;;;;;;;;;;;;;;;;
1609;;;;;;;;;;;;;;;;;;;;;
1621;;;;;;;;;;;;;;;;;;;;;
1633;;;;;;;;;;;;;;;;;;;;;
1645;;;;;;;;;;;;;;;;;;;;;
1657;;;;;;;;;;;;;;;;;;;;;
1669;;;;;;;;;;;;;;;;;;;;;
1681;;;;;;;;;;;;;;;;;;;;;
1693;;;;;;;;;;;;;;;;;;;;;
1705;;;;;;;;;;;;;;;;;;;;;
1717;;;;;;;;;;;;;;;;;;;;;
1729;;;;;;;;;;;;;;;;;;;;;
1741;;;;;;;;;;;;;;;;;;;;;
1753;;;;;;;;;;;;;;;;;;;;;
1765;;;;;;;;;;;;;;;;;;;;;
1777;;;;;;;;;;;;;;;;;;;;;
1789;;;;;;;;;;;;;;;;;;;;;
1801;;;;;;;;;;;;;;;;;;;;;
1813;;;;;;;;;;;;;;;;;;;;;
1825;;;;;;;;;;;;;;;;;;;;;
1837;;;;;;;;;;;;;;;;;;;;;
1849;;;;;;;;;;;;;;;;;;;;;
1861;;;;;;;;;;;;;;;;;;;;;
1873;;;;;;;;;;;;;;;;;;;;;
1885;;;;;;;;;;;;;;;;;;;;;
1897;;;;;;;;;;;;;;;;;;;;;
1909;;;;;;;;;;;;;;;;;;;;;
1921;;;;;;;;;;;;;;;;;;;;;
1933;;;;;;;;;;;;;;;;;;;;;
1945;;;;;;;;;;;;;;;;;;;;;
1957;;;;;;;;;;;;;;;;;;;;;
1969;;;;;;;;;;;;;;;;;;;;;
1981;;;;;;;;;;;;;;;;;;;;;
1993;;;;;;;;;;;;;;;;;;;;;
2005;;;;;;;;;;;;;;;;;;;;;
2017;;;;;;;;;;;;;;;;;;;;;
2029;;;;;;;;;;;;;;;;;;;;;
2041;;;;;;;;;;;;;;;;;;;;;
2053;;;;;;;;;;;;;;;;;;;;;
2065;;;;;;;;;;;;;;;;;;;;;
2077;;;;;;;;;;;;;;;;;;;;;
2089;;;;;;;;;;;;;;;;;;;;;
2101;;;;;;;;;;;;;;;;;;;;;
2113;;;;;;;;;;;;;;;;;;;;;
2125;;;;;;;;;;;;;;;;;;;;;
2137;;;;;;;;;;;;;;;;;;;;;
2149;;;;;;;;;;;;;;;;;;;;;
2161;;;;;;;;;;;;;;;;;;;;;
2173;;;;;;;;;;;;;;;;;;;;;
2185;;;;;;;;;;;;;;;;;;;;;
2197;;;;;;;;;;;;;;;;;;;;;
2209;;;;;;;;;;;;;;;;;;;;;
2221;;;;;;;;;;;;;;;;;;;;;
2233;;;;;;;;;;;;;;;;;;;;;
2245;;;;;;;;;;;;;;;;;;;;;
2257;;;;;;;;;;;;;;;;;;;;;
2269;;;;;;;;;;;;;;;;;;;;;
2281;;;;;;;;;;;;;;;;;;;;;
2293;;;;;;;;;;;;;;;;;;;;;
2305;;;;;;;;;;;;;;;;;;;;;
2317;;;;;;;;;;;;;;;;;;;;;
2329;;;;;;;;;;;;;;;;;;;;;
2341;;;;;;;;;;;;;;;;;;;;;
2353;;;;;;;;;;;;;;;;;;;;;
2365;;;;;;;;;;;;;;;;;;;;;
2377;;;;;;;;;;;;;;;;;;;;;
2389;;;;;;;;;;;;;;;;;;;;;
2401;;;;;;;;;;;;;;;;;;;;;
2413;;;;;;;;;;;;;;;;;;;;;
2425;;;;;;;;;;;;;;;;;;;;;
2437;;;;;;;;;;;;;;;;;;;;;
2449;;;;;;;;;;;;;;;;;;;;;
2461;;;;;;;;;;;;;;;;;;;;;
2473;;;;;;;;;;;;;;;;;;;;;
2485;;;;;;;;;;;;;;;;;;;;;
2497;;;;;;;;;;;;;;;;;;;;;
2509;;;;;;;;;;;;;;;;;;;;;
2521;;;;;;;;;;;;;;;;;;;;;
2533;;;;;;;;;;;;;;;;;;;;;
2545;;;;;;;;;;;;;;;;;;;;;
2557;;;;;;;;;;;;;;;;;;;;;
2569;;;;;;;;;;;;;;;;;;;;;
2581;;;;;;;;;;;;;;;;;;;;;
2593;;;;;;;;;;;;;;;;;;;;;
2605;;;;;;;;;;;;;;;;;;;;;
2617;;;;;;;;;;;;;;;;;;;;;
2629;;;;;;;;;;;;;;;;;;;;;
2641;;;;;;;;;;;;;;;;;;;;;
2653;;;;;;;;;;;;;;;;;;;;;
2665;;;;;;;;;;;;;;;;;;;;;
2677;;;;;;;;;;;;;;;;;;;;;
2689;;;;;;;;;;;;;;;;;;;;;
2701;;;;;;;;;;;;;;;;;;;;;
2713;;;;;;;;;;;;;;;;;;;;;
2725;;;;;;;;;;;;;;;;;;;;;
2737;;;;;;;;;;;;;;;;;;;;;
2749;;;;;;;;;;;;;;;;;;;;;
2761;;;;;;;;;;;;;;;;;;;;;
2773;;;;;;;;;;;;;;;;;;;;;
2785;;;;;;;;;;;;;;;;;;;;;
2797;;;;;;;;;;;;;;;;;;;;;
2809;;;;;;;;;;;;;;;;;;;;;
2821;;;;;;;;;;;;;;;;;;;;;
2833;;;;;;;;;;;;;;;;;;;;;
2845;;;;;;;;;;;;;;;;;;;;;
2857;;;;;;;;;;;;;;;;;;;;;
2869;;;;;;;;;;;;;;;;;;;;;
2881;;;;;;;;;;;;;;;;;;;;;
2893;;;;;;;;;;;;;;;;;;;;;
2905;;;;;;;;;;;;;;;;;;;;;
2917;;;;;;;;;;;;;;;;;;;;;
2929;;;;;;;;;;;;;;;;;;;;;
2941;;;;;;;;;;;;;;;;;;;;;
2953;;;;;;;;;;;;;;;;;;;;;
2965;;;;;;;;;;;;;;;;;;;;;
2977;;;;;;;;;;;;;;;;;;;;;
2989;;;;;;;;;;;;;;;;;;;;;
3001;;;;;;;;;;;;;;;;;;;;;
3013;;;;;;;;;;;;;;;;;;;;;
3025;;;;;;;;;;;;;;;;;;;;;
3037;;;;;;;;;;;;;;;;;;;;;
3049;;;;;;;;;;;;;;;;;;;;;
3061;;;;;;;;;;;;;;;;;;;;;
3073;;;;;;;;;;;;;;;;;;;;;
3085;;;;;;;;;;;;;;;;;;;;;
3097;;;;;;;;;;;;;;;;;;;;;
3109;;;;;;;;;;;;;;;;;;;;;
3121;;;;;;;;;;;;;;;;;;;;;
3133;;;;;;;;;;;;;;;;;;;;;
3145;;;;;;;;;;;;;;;;;;;;;
3157;;;;;;;;;;;;;;;;;;;;;
3169;;;;;;;;;;;;;;;;;;;;;
3181;;;;;;;;;;;;;;;;;;;;;
3193;;;;;;;;;;;;;;;;;;;;;
3205;;;;;;;;;;;;;;;;;;;;;
3217;;;;;;;;;;;;;;;;;;;;;
3229;;;;;;;;;;;;;;;;;;;;;
3241;;;;;;;;;;;;;;;;;;;;;
3253;;;;;;;;;;;;;;;;;;;;;
3265;;;;;;;;;;;;;;;;;;;;;
3277;;;;;;;;;;;;;;;;;;;;;
3289;;;;;;;;;;;;;;;;;;;;;
3301;;;;;;;;;;;;;;;;;;;;;
3313;;;;;;;;;;;;;;;;;;;;;
3325;;;;;;;;;;;;;;;;;;;;;