File: carbon_superP/O2_0250rpm.txt
Index;Column 2 (V);Column 3 (V);Column 4 (V);Column 5 (V);Column 6 (V/s);Column 7 (V);Time (s);Potential applied (V);WE(1).Current (A);WE(1).Potential (V);Scan;Column 13 (RPM);ω (rad/s)
1;0.1;0.11;-0.9;-0.01;0.01;-0.00244;6221;-0.014801;-7.17468e-07;-0.014505;3;250;26.1799
10;;;;;;;6223.2;-0.0367737;-7.87048e-06;-0.0364166;3;;
19;;;;;;;6225.39;-0.0587463;-4.79706e-05;-0.0583801;3;;
28;;;;;;;6227.59;-0.080719;-0.000156097;-0.0802612;3;;
37;;;;;;;6229.79;-0.102692;-0.000305908;-0.101868;3;;
46;;;;;;;6231.99;-0.124664;-0.000408783;-0.124176;3;;
55;;;;;;;6234.18;-0.146637;-0.00035199;-0.146118;3;;
64;;;;;;;6236.38;-0.16861;-0.000350647;-0.168121;3;;
73;;;;;;;6238.58;-0.190582;-0.000359772;-0.190002;3;;
82;;;;;;;6240.77;-0.212555;-0.000367035;-0.211975;3;;
91;;;;;;;6242.97;-0.234528;-0.000371674;-0.233856;3;;
100;;;;;;;6245.17;-0.2565;-0.000375275;-0.255859;3;;
109;;;;;;;6247.37;-0.278473;-0.00037796;-0.27771;3;;
118;;;;;;;6249.56;-0.300446;-0.000380066;-0.299652;3;;
127;;;;;;;6251.76;-0.322418;-0.000381592;-0.321564;3;;
136;;;;;;;6253.96;-0.344391;-0.000383179;-0.343567;3;;
145;;;;;;;6256.16;-0.366364;-0.000384308;-0.365479;3;;
154;;;;;;;6258.35;-0.388336;-0.000385254;-0.387421;3;;
163;;;;;;;6260.55;-0.410309;-0.00038623;-0.409424;3;;
172;;;;;;;6262.75;-0.432281;-0.000386993;-0.431213;3;;
181;;;;;;;6264.94;-0.454254;-0.000388092;-0.453217;3;;
190;;;;;;;6267.14;-0.476227;-0.00038858;-0.475128;3;;
199;;;;;;;6269.34;-0.498199;-0.000389832;-0.497131;3;;
208;;;;;;;6271.54;-0.520172;-0.000391022;-0.519012;3;;
217;;;;;;;6273.73;-0.542145;-0.000392731;-0.541016;3;;
226;;;;;;;6275.93;-0.564117;-0.000393829;-0.562836;3;;
235;;;;;;;6278.13;-0.58609;-0.000396271;-0.584839;3;;
244;;;;;;;6280.33;-0.608063;-0.000397888;-0.606842;3;;
253;;;;;;;6282.52;-0.630035;-0.000399292;-0.628754;3;;
262;;;;;;;6284.72;-0.652008;-0.000400482;-0.650696;3;;
271;;;;;;;6286.92;-0.673981;-0.000401367;-0.672607;3;;
280;;;;;;;6289.11;-0.695953;-0.000401855;-0.69458;3;;
289;;;;;;;6291.31;-0.717926;-0.000401825;-0.716614;3;;
298;;;;;;;6293.51;-0.739899;-0.000402435;-0.738586;3;;
307;;;;;;;6295.71;-0.761871;-0.000401855;-0.761108;3;;
316;;;;;;;6297.9;-0.783844;-0.000401093;-0.782776;3;;
325;;;;;;;6300.1;-0.805817;-0.00040033;-0.805054;3;;
334;;;;;;;6302.3;-0.827789;-0.000399323;-0.827332;3;;
343;;;;;;;6304.5;-0.849762;-0.000397797;-0.848999;3;;
352;;;;;;;6306.69;-0.871735;-0.00039621;-0.870972;3;;
361;;;;;;;6308.89;-0.893707;-0.000395782;-0.892944;3;;
370;;;;;;;6311.09;-0.886383;-0.000390717;-0.88562;3;;
379;;;;;;;6313.28;-0.86441;-0.000390564;-0.863647;3;;
388;;;;;;;6315.48;-0.842438;-0.000391388;-0.84137;3;;
397;;;;;;;6317.68;-0.820465;-0.000392365;-0.819397;3;;
406;;;;;;;6319.88;-0.798492;-0.000393372;-0.797729;3;;
415;;;;;;;6322.07;-0.77652;-0.00039389;-0.776062;3;;
424;;;;;;;6324.27;-0.754547;-0.00039447;-0.753784;3;;
433;;;;;;;6326.47;-0.732574;-0.000394409;-0.731232;3;;
442;;;;;;;6328.67;-0.710602;-0.000394226;-0.709229;3;;
451;;;;;;;6330.86;-0.688629;-0.000393829;-0.687286;3;;
460;;;;;;;6333.06;-0.666656;-0.000393066;-0.665344;3;;
469;;;;;;;6335.26;-0.644684;-0.000392273;-0.643402;3;;
478;;;;;;;6337.45;-0.622711;-0.000390991;-0.621399;3;;
487;;;;;;;6339.65;-0.600739;-0.000389984;-0.599426;3;;
496;;;;;;;6341.85;-0.578766;-0.000388245;-0.577545;3;;
505;;;;;;;6344.05;-0.556793;-0.000387146;-0.555603;3;;
514;;;;;;;6346.24;-0.534821;-0.000385254;-0.533569;3;;
523;;;;;;;6348.44;-0.512848;-0.000384003;-0.511688;3;;
532;;;;;;;6350.64;-0.490875;-0.000382782;-0.489838;3;;
541;;;;;;;6352.84;-0.468903;-0.000382172;-0.467865;3;;
550;;;;;;;6355.03;-0.44693;-0.000381165;-0.445923;3;;
559;;;;;;;6357.23;-0.424957;-0.000380768;-0.42395;3;;
568;;;;;;;6359.43;-0.402985;-0.000380219;-0.402069;3;;
577;;;;;;;6361.62;-0.381012;-0.000379333;-0.380096;3;;
586;;;;;;;6363.82;-0.359039;-0.000378357;-0.358124;3;;
595;;;;;;;6366.02;-0.337067;-0.000377228;-0.336304;3;;
604;;;;;;;6368.22;-0.315094;-0.000375885;-0.314331;3;;
613;;;;;;;6370.41;-0.293121;-0.000374298;-0.292328;3;;
622;;;;;;;6372.61;-0.271149;-0.000372284;-0.270386;3;;
631;;;;;;;6374.81;-0.249176;-0.000369873;-0.248444;3;;
640;;;;;;;6377.01;-0.227203;-0.000365967;-0.226532;3;;
649;;;;;;;6379.2;-0.205231;-0.000360474;-0.20462;3;;
658;;;;;;;6381.4;-0.183258;-0.000352234;-0.182709;3;;
667;;;;;;;6383.6;-0.161285;-0.000337555;-0.160736;3;;
676;;;;;;;6385.79;-0.139313;-0.000307373;-0.138855;3;;
685;;;;;;;6387.99;-0.11734;-0.000248749;-0.116882;3;;
694;;;;;;;6390.19;-0.0953674;-0.000162231;-0.0949707;3;;
703;;;;;;;6392.39;-0.0733948;-7.42798e-05;-0.0730286;3;;
712;;;;;;;6394.58;-0.0514221;-1.97052e-05;-0.0510864;3;;
721;;;;;;;6396.78;-0.0294495;-2.211e-06;-0.0291046;3;;
730;;;;;;;6398.98;-0.00747681;8.64258e-07;-0.0072052;3;;
739;;;;;;;6401.18;0.0144958;1.2915e-06;0.0147766;3;;
748;;;;;;;6403.37;0.0364685;1.40503e-06;0.0367523;3;;
757;;;;;;;6405.57;0.0584412;1.48865e-06;0.0584106;3;;
766;;;;;;;6407.77;0.0804138;1.60767e-06;0.0803528;3;;
775;;;;;;;6409.96;0.102386;1.77338e-06;0.102295;3;;
784;;;;;;;6412.16;0.0999451;1.29211e-06;0.0999451;3;;
793;;;;;;;6414.36;0.0779724;9.01489e-07;0.0780334;3;;
802;;;;;;;6416.56;0.0559998;6.74133e-07;0.0560608;3;;
811;;;;;;;6418.75;0.0340271;5.01709e-07;0.0342896;3;;
820;;;;;;;6420.95;0.0120544;3.10364e-07;0.0123291;3;;
829;;;;;;;6423.15;-0.00991821;-3.20129e-07;-0.00960388;3;;
838;;;;;;;;;;;;;
847;;;;;;;;;;;;;
856;;;;;;;;;;;;;
865;;;;;;;;;;;;;
874;;;;;;;;;;;;;
883;;;;;;;;;;;;;
892;;;;;;;;;;;;;
901;;;;;;;;;;;;;
910;;;;;;;;;;;;;
919;;;;;;;;;;;;;
928;;;;;;;;;;;;;
937;;;;;;;;;;;;;
946;;;;;;;;;;;;;
955;;;;;;;;;;;;;
964;;;;;;;;;;;;;
973;;;;;;;;;;;;;
982;;;;;;;;;;;;;
991;;;;;;;;;;;;;
1000;;;;;;;;;;;;;
1009;;;;;;;;;;;;;
1018;;;;;;;;;;;;;
1027;;;;;;;;;;;;;
1036;;;;;;;;;;;;;
1045;;;;;;;;;;;;;
1054;;;;;;;;;;;;;
1063;;;;;;;;;;;;;
1072;;;;;;;;;;;;;
1081;;;;;;;;;;;;;
1090;;;;;;;;;;;;;
1099;;;;;;;;;;;;;
1108;;;;;;;;;;;;;
1117;;;;;;;;;;;;;
1126;;;;;;;;;;;;;
1135;;;;;;;;;;;;;
1144;;;;;;;;;;;;;
1153;;;;;;;;;;;;;
1162;;;;;;;;;;;;;
1171;;;;;;;;;;;;;
1180;;;;;;;;;;;;;
1189;;;;;;;;;;;;;
1198;;;;;;;;;;;;;
1207;;;;;;;;;;;;;
1216;;;;;;;;;;;;;
1225;;;;;;;;;;;;;
1234;;;;;;;;;;;;;
1243;;;;;;;;;;;;;
1252;;;;;;;;;;;;;
1261;;;;;;;;;;;;;
1270;;;;;;;;;;;;;
1279;;;;;;;;;;;;;
1288;;;;;;;;;;;;;
1297;;;;;;;;;;;;;
1306;;;;;;;;;;;;;
1315;;;;;;;;;;;;;
1324;;;;;;;;;;;;;
1333;;;;;;;;;;;;;
1342;;;;;;;;;;;;;
1351;;;;;;;;;;;;;
1360;;;;;;;;;;;;;
1369;;;;;;;;;;;;;
1378;;;;;;;;;;;;;
1387;;;;;;;;;;;;;
1396;;;;;;;;;;;;;
1405;;;;;;;;;;;;;
1414;;;;;;;;;;;;;
1423;;;;;;;;;;;;;
1432;;;;;;;;;;;;;
1441;;;;;;;;;;;;;
1450;;;;;;;;;;;;;
1459;;;;;;;;;;;;;
1468;;;;;;;;;;;;;
1477;;;;;;;;;;;;;
1486;;;;;;;;;;;;;
1495;;;;;;;;;;;;;
1504;;;;;;;;;;;;;
1513;;;;;;;;;;;;;
1522;;;;;;;;;;;;;
1531;;;;;;;;;;;;;
1540;;;;;;;;;;;;;
1549;;;;;;;;;;;;;
1558;;;;;;;;;;;;;
1567;;;;;;;;;;;;;
1576;;;;;;;;;;;;;
1585;;;;;;;;;;;;;
1594;;;;;;;;;;;;;
1603;;;;;;;;;;;;;
1612;;;;;;;;;;;;;
1621;;;;;;;;;;;;;
1630;;;;;;;;;;;;;
1639;;;;;;;;;;;;;
1648;;;;;;;;;;;;;
1657;;;;;;;;;;;;;
1666;;;;;;;;;;;;;
1675;;;;;;;;;;;;;
1684;;;;;;;;;;;;;
1693;;;;;;;;;;;;;
1702;;;;;;;;;;;;;
1711;;;;;;;;;;;;;
1720;;;;;;;;;;;;;
1729;;;;;;;;;;;;;
1738;;;;;;;;;;;;;
1747;;;;;;;;;;;;;
1756;;;;;;;;;;;;;
1765;;;;;;;;;;;;;
1774;;;;;;;;;;;;;
1783;;;;;;;;;;;;;
1792;;;;;;;;;;;;;
1801;;;;;;;;;;;;;
1810;;;;;;;;;;;;;
1819;;;;;;;;;;;;;
1828;;;;;;;;;;;;;
1837;;;;;;;;;;;;;
1846;;;;;;;;;;;;;
1855;;;;;;;;;;;;;
1864;;;;;;;;;;;;;
1873;;;;;;;;;;;;;
1882;;;;;;;;;;;;;
1891;;;;;;;;;;;;;
1900;;;;;;;;;;;;;
1909;;;;;;;;;;;;;
1918;;;;;;;;;;;;;
1927;;;;;;;;;;;;;
1936;;;;;;;;;;;;;
1945;;;;;;;;;;;;;
1954;;;;;;;;;;;;;
1963;;;;;;;;;;;;;
1972;;;;;;;;;;;;;
1981;;;;;;;;;;;;;
1990;;;;;;;;;;;;;
1999;;;;;;;;;;;;;
2008;;;;;;;;;;;;;
2017;;;;;;;;;;;;;
2026;;;;;;;;;;;;;
2035;;;;;;;;;;;;;
2044;;;;;;;;;;;;;
2053;;;;;;;;;;;;;
2062;;;;;;;;;;;;;
2071;;;;;;;;;;;;;
2080;;;;;;;;;;;;;
2089;;;;;;;;;;;;;
2098;;;;;;;;;;;;;
2107;;;;;;;;;;;;;
2116;;;;;;;;;;;;;
2125;;;;;;;;;;;;;
2134;;;;;;;;;;;;;
2143;;;;;;;;;;;;;
2152;;;;;;;;;;;;;
2161;;;;;;;;;;;;;
2170;;;;;;;;;;;;;
2179;;;;;;;;;;;;;
2188;;;;;;;;;;;;;
2197;;;;;;;;;;;;;
2206;;;;;;;;;;;;;
2215;;;;;;;;;;;;;
2224;;;;;;;;;;;;;
2233;;;;;;;;;;;;;
2242;;;;;;;;;;;;;
2251;;;;;;;;;;;;;
2260;;;;;;;;;;;;;
2269;;;;;;;;;;;;;
2278;;;;;;;;;;;;;
2287;;;;;;;;;;;;;
2296;;;;;;;;;;;;;
2305;;;;;;;;;;;;;
2314;;;;;;;;;;;;;
2323;;;;;;;;;;;;;
2332;;;;;;;;;;;;;
2341;;;;;;;;;;;;;
2350;;;;;;;;;;;;;
2359;;;;;;;;;;;;;
2368;;;;;;;;;;;;;
2377;;;;;;;;;;;;;
2386;;;;;;;;;;;;;
2395;;;;;;;;;;;;;
2404;;;;;;;;;;;;;
2413;;;;;;;;;;;;;
2422;;;;;;;;;;;;;
2431;;;;;;;;;;;;;
2440;;;;;;;;;;;;;
2449;;;;;;;;;;;;;
2458;;;;;;;;;;;;;
2467;;;;;;;;;;;;;
2476;;;;;;;;;;;;;
2485;;;;;;;;;;;;;
2494;;;;;;;;;;;;;
2503;;;;;;;;;;;;;
2512;;;;;;;;;;;;;
2521;;;;;;;;;;;;;
2530;;;;;;;;;;;;;
2536;;;;;;;;;;;;;