File: carbon_superP/O2_0500rpm.txt
Index;Column 2 (V);Column 3 (V);Column 4 (V);Column 5 (V);Column 6 (V/s);Column 7 (V);Time (s);Potential applied (V);WE(1).Current (A);WE(1).Potential (V);Scan;Column 13 (RPM);ω (rad/s)
1;0.1;0.11;-0.9;-0.01;0.01;-0.00244;7479.38;-0.014801;-8.17871e-07;-0.0144714;3;500;52.3599
10;;;;;;;7481.57;-0.0367737;-8.88367e-06;-0.0364258;3;;
19;;;;;;;7483.77;-0.0587463;-5.3009e-05;-0.0584106;3;;
28;;;;;;;7485.97;-0.080719;-0.000167969;-0.0802002;3;;
37;;;;;;;7488.17;-0.102692;-0.00032663;-0.102325;3;;
46;;;;;;;7490.36;-0.124664;-0.000454498;-0.124207;3;;
55;;;;;;;7492.56;-0.146637;-0.00046286;-0.146118;3;;
64;;;;;;;7494.76;-0.16861;-0.000471405;-0.16806;3;;
73;;;;;;;7496.96;-0.190582;-0.000487518;-0.190033;3;;
82;;;;;;;7499.15;-0.212555;-0.000499573;-0.211884;3;;
91;;;;;;;7501.35;-0.234528;-0.000508118;-0.233887;3;;
100;;;;;;;7503.55;-0.2565;-0.000513916;-0.255829;3;;
109;;;;;;;7505.74;-0.278473;-0.000518188;-0.27771;3;;
118;;;;;;;7507.94;-0.300446;-0.00052124;-0.299652;3;;
127;;;;;;;7510.14;-0.322418;-0.000523682;-0.321594;3;;
136;;;;;;;7512.34;-0.344391;-0.000526733;-0.343567;3;;
145;;;;;;;7514.53;-0.366364;-0.000528564;-0.365448;3;;
154;;;;;;;7516.73;-0.388336;-0.00052948;-0.387421;3;;
163;;;;;;;7518.93;-0.410309;-0.000531006;-0.409424;3;;
172;;;;;;;7521.13;-0.432281;-0.000532532;-0.431305;3;;
181;;;;;;;7523.32;-0.454254;-0.000533447;-0.453217;3;;
190;;;;;;;7525.52;-0.476227;-0.000535278;-0.475128;3;;
199;;;;;;;7527.72;-0.498199;-0.000536804;-0.49704;3;;
208;;;;;;;7529.91;-0.520172;-0.00053833;-0.519043;3;;
217;;;;;;;7532.11;-0.542145;-0.000541077;-0.541016;3;;
226;;;;;;;7534.31;-0.564117;-0.000543518;-0.562927;3;;
235;;;;;;;7536.51;-0.58609;-0.000545654;-0.584808;3;;
244;;;;;;;7538.7;-0.608063;-0.000549622;-0.60675;3;;
253;;;;;;;7540.9;-0.630035;-0.000552368;-0.628754;3;;
262;;;;;;;7543.1;-0.652008;-0.000553284;-0.650665;3;;
271;;;;;;;7545.3;-0.673981;-0.000556946;-0.672607;3;;
280;;;;;;;7547.49;-0.695953;-0.000557251;-0.69458;3;;
289;;;;;;;7549.69;-0.717926;-0.000557251;-0.716553;3;;
298;;;;;;;7551.89;-0.739899;-0.000557251;-0.738495;3;;
307;;;;;;;7554.08;-0.761871;-0.000557861;-0.761108;3;;
316;;;;;;;7556.28;-0.783844;-0.000555725;-0.783081;3;;
325;;;;;;;7558.48;-0.805817;-0.00055542;-0.804749;3;;
334;;;;;;;7560.68;-0.827789;-0.000552979;-0.827026;3;;
343;;;;;;;7562.87;-0.849762;-0.000550842;-0.848999;3;;
352;;;;;;;7565.07;-0.871735;-0.00054657;-0.870667;3;;
361;;;;;;;7567.27;-0.893707;-0.000544128;-0.892944;3;;
370;;;;;;;7569.47;-0.886383;-0.000539856;-0.885925;3;;
379;;;;;;;7571.66;-0.86441;-0.000541382;-0.863037;3;;
388;;;;;;;7573.86;-0.842438;-0.000543823;-0.84137;3;;
397;;;;;;;7576.06;-0.820465;-0.00054657;-0.820007;3;;
406;;;;;;;7578.25;-0.798492;-0.000547485;-0.79834;3;;
415;;;;;;;7580.45;-0.77652;-0.000548401;-0.775757;3;;
424;;;;;;;7582.65;-0.754547;-0.000549622;-0.754395;3;;
433;;;;;;;7584.85;-0.732574;-0.000549622;-0.731232;3;;
442;;;;;;;7587.04;-0.710602;-0.000549011;-0.709259;3;;
451;;;;;;;7589.24;-0.688629;-0.000548096;-0.687286;3;;
460;;;;;;;7591.44;-0.666656;-0.000546265;-0.665344;3;;
469;;;;;;;7593.64;-0.644684;-0.000543823;-0.643402;3;;
478;;;;;;;7595.83;-0.622711;-0.000541687;-0.621429;3;;
487;;;;;;;7598.03;-0.600739;-0.000539856;-0.599426;3;;
496;;;;;;;7600.23;-0.578766;-0.00053833;-0.577545;3;;
505;;;;;;;7602.42;-0.556793;-0.000534363;-0.555573;3;;
514;;;;;;;7604.62;-0.534821;-0.000532532;-0.533691;3;;
523;;;;;;;7606.82;-0.512848;-0.000531311;-0.511719;3;;
532;;;;;;;7609.02;-0.490875;-0.00052948;-0.489777;3;;
541;;;;;;;7611.21;-0.468903;-0.000527039;-0.467865;3;;
550;;;;;;;7613.41;-0.44693;-0.000526428;-0.445953;3;;
559;;;;;;;7615.61;-0.424957;-0.000525818;-0.423981;3;;
568;;;;;;;7617.81;-0.402985;-0.000524597;-0.402039;3;;
577;;;;;;;7620;-0.381012;-0.000522461;-0.380096;3;;
586;;;;;;;7622.2;-0.359039;-0.00052124;-0.358154;3;;
595;;;;;;;7624.4;-0.337067;-0.000519714;-0.336182;3;;
604;;;;;;;7626.59;-0.315094;-0.000517273;-0.314331;3;;
613;;;;;;;7628.79;-0.293121;-0.000515137;-0.292358;3;;
622;;;;;;;7630.99;-0.271149;-0.000512085;-0.270477;3;;
631;;;;;;;7633.19;-0.249176;-0.000506897;-0.248505;3;;
640;;;;;;;7635.38;-0.227203;-0.000499878;-0.2265625;3;;
649;;;;;;;7637.58;-0.205231;-0.000492432;-0.20459;3;;
658;;;;;;;7639.78;-0.183258;-0.000478088;-0.182648;3;;
667;;;;;;;7641.98;-0.161285;-0.000452759;-0.160767;3;;
676;;;;;;;7644.17;-0.139313;-0.000403412;-0.138824;3;;
685;;;;;;;7646.37;-0.11734;-0.000318176;-0.116882;3;;
694;;;;;;;7648.57;-0.0953674;-0.000204376;-0.0949402;3;;
703;;;;;;;7650.76;-0.0733948;-9.42993e-05;-0.0730286;3;;
712;;;;;;;7652.96;-0.0514221;-2.55035e-05;-0.0511169;3;;
721;;;;;;;7655.16;-0.0294495;-3.07281e-06;-0.0291138;3;;
730;;;;;;;7657.36;-0.00747681;7.91931e-07;-0.00721436;3;;
739;;;;;;;7659.55;0.0144958;1.30035e-06;0.0147797;3;;
748;;;;;;;7661.75;0.0364685;1.40808e-06;0.0367004;3;;
757;;;;;;;7663.95;0.0584412;1.50513e-06;0.0584106;3;;
766;;;;;;;7666.15;0.0804138;1.61987e-06;0.0803528;3;;
775;;;;;;;7668.34;0.102386;1.78558e-06;0.102295;3;;
784;;;;;;;7670.54;0.0999451;1.30432e-06;0.0999146;3;;
793;;;;;;;7672.74;0.0779724;9.04846e-07;0.0780334;3;;
802;;;;;;;7674.93;0.0559998;6.78711e-07;0.0560303;3;;
811;;;;;;;7677.13;0.0340271;5.14832e-07;0.0342682;3;;
820;;;;;;;7679.33;0.0120544;3.19519e-07;0.0122803;3;;
829;;;;;;;7681.53;-0.00991821;-3.68042e-07;-0.00966797;3;;
838;;;;;;;;;;;;;
847;;;;;;;;;;;;;
856;;;;;;;;;;;;;
865;;;;;;;;;;;;;
874;;;;;;;;;;;;;
883;;;;;;;;;;;;;
892;;;;;;;;;;;;;
901;;;;;;;;;;;;;
910;;;;;;;;;;;;;
919;;;;;;;;;;;;;
928;;;;;;;;;;;;;
937;;;;;;;;;;;;;
946;;;;;;;;;;;;;
955;;;;;;;;;;;;;
964;;;;;;;;;;;;;
973;;;;;;;;;;;;;
982;;;;;;;;;;;;;
991;;;;;;;;;;;;;
1000;;;;;;;;;;;;;
1009;;;;;;;;;;;;;
1018;;;;;;;;;;;;;
1027;;;;;;;;;;;;;
1036;;;;;;;;;;;;;
1045;;;;;;;;;;;;;
1054;;;;;;;;;;;;;
1063;;;;;;;;;;;;;
1072;;;;;;;;;;;;;
1081;;;;;;;;;;;;;
1090;;;;;;;;;;;;;
1099;;;;;;;;;;;;;
1108;;;;;;;;;;;;;
1117;;;;;;;;;;;;;
1126;;;;;;;;;;;;;
1135;;;;;;;;;;;;;
1144;;;;;;;;;;;;;
1153;;;;;;;;;;;;;
1162;;;;;;;;;;;;;
1171;;;;;;;;;;;;;
1180;;;;;;;;;;;;;
1189;;;;;;;;;;;;;
1198;;;;;;;;;;;;;
1207;;;;;;;;;;;;;
1216;;;;;;;;;;;;;
1225;;;;;;;;;;;;;
1234;;;;;;;;;;;;;
1243;;;;;;;;;;;;;
1252;;;;;;;;;;;;;
1261;;;;;;;;;;;;;
1270;;;;;;;;;;;;;
1279;;;;;;;;;;;;;
1288;;;;;;;;;;;;;
1297;;;;;;;;;;;;;
1306;;;;;;;;;;;;;
1315;;;;;;;;;;;;;
1324;;;;;;;;;;;;;
1333;;;;;;;;;;;;;
1342;;;;;;;;;;;;;
1351;;;;;;;;;;;;;
1360;;;;;;;;;;;;;
1369;;;;;;;;;;;;;
1378;;;;;;;;;;;;;
1387;;;;;;;;;;;;;
1396;;;;;;;;;;;;;
1405;;;;;;;;;;;;;
1414;;;;;;;;;;;;;
1423;;;;;;;;;;;;;
1432;;;;;;;;;;;;;
1441;;;;;;;;;;;;;
1450;;;;;;;;;;;;;
1459;;;;;;;;;;;;;
1468;;;;;;;;;;;;;
1477;;;;;;;;;;;;;
1486;;;;;;;;;;;;;
1495;;;;;;;;;;;;;
1504;;;;;;;;;;;;;
1513;;;;;;;;;;;;;
1522;;;;;;;;;;;;;
1531;;;;;;;;;;;;;
1540;;;;;;;;;;;;;
1549;;;;;;;;;;;;;
1558;;;;;;;;;;;;;
1567;;;;;;;;;;;;;
1576;;;;;;;;;;;;;
1585;;;;;;;;;;;;;
1594;;;;;;;;;;;;;
1603;;;;;;;;;;;;;
1612;;;;;;;;;;;;;
1621;;;;;;;;;;;;;
1630;;;;;;;;;;;;;
1639;;;;;;;;;;;;;
1648;;;;;;;;;;;;;
1657;;;;;;;;;;;;;
1666;;;;;;;;;;;;;
1675;;;;;;;;;;;;;
1684;;;;;;;;;;;;;
1693;;;;;;;;;;;;;
1702;;;;;;;;;;;;;
1711;;;;;;;;;;;;;
1720;;;;;;;;;;;;;
1729;;;;;;;;;;;;;
1738;;;;;;;;;;;;;
1747;;;;;;;;;;;;;
1756;;;;;;;;;;;;;
1765;;;;;;;;;;;;;
1774;;;;;;;;;;;;;
1783;;;;;;;;;;;;;
1792;;;;;;;;;;;;;
1801;;;;;;;;;;;;;
1810;;;;;;;;;;;;;
1819;;;;;;;;;;;;;
1828;;;;;;;;;;;;;
1837;;;;;;;;;;;;;
1846;;;;;;;;;;;;;
1855;;;;;;;;;;;;;
1864;;;;;;;;;;;;;
1873;;;;;;;;;;;;;
1882;;;;;;;;;;;;;
1891;;;;;;;;;;;;;
1900;;;;;;;;;;;;;
1909;;;;;;;;;;;;;
1918;;;;;;;;;;;;;
1927;;;;;;;;;;;;;
1936;;;;;;;;;;;;;
1945;;;;;;;;;;;;;
1954;;;;;;;;;;;;;
1963;;;;;;;;;;;;;
1972;;;;;;;;;;;;;
1981;;;;;;;;;;;;;
1990;;;;;;;;;;;;;
1999;;;;;;;;;;;;;
2008;;;;;;;;;;;;;
2017;;;;;;;;;;;;;
2026;;;;;;;;;;;;;
2035;;;;;;;;;;;;;
2044;;;;;;;;;;;;;
2053;;;;;;;;;;;;;
2062;;;;;;;;;;;;;
2071;;;;;;;;;;;;;
2080;;;;;;;;;;;;;
2089;;;;;;;;;;;;;
2098;;;;;;;;;;;;;
2107;;;;;;;;;;;;;
2116;;;;;;;;;;;;;
2125;;;;;;;;;;;;;
2134;;;;;;;;;;;;;
2143;;;;;;;;;;;;;
2152;;;;;;;;;;;;;
2161;;;;;;;;;;;;;
2170;;;;;;;;;;;;;
2179;;;;;;;;;;;;;
2188;;;;;;;;;;;;;
2197;;;;;;;;;;;;;
2206;;;;;;;;;;;;;
2215;;;;;;;;;;;;;
2224;;;;;;;;;;;;;
2233;;;;;;;;;;;;;
2242;;;;;;;;;;;;;
2251;;;;;;;;;;;;;
2260;;;;;;;;;;;;;
2269;;;;;;;;;;;;;
2278;;;;;;;;;;;;;
2287;;;;;;;;;;;;;
2296;;;;;;;;;;;;;
2305;;;;;;;;;;;;;
2314;;;;;;;;;;;;;
2323;;;;;;;;;;;;;
2332;;;;;;;;;;;;;
2341;;;;;;;;;;;;;
2350;;;;;;;;;;;;;
2359;;;;;;;;;;;;;
2368;;;;;;;;;;;;;
2377;;;;;;;;;;;;;
2386;;;;;;;;;;;;;
2395;;;;;;;;;;;;;
2404;;;;;;;;;;;;;
2413;;;;;;;;;;;;;
2422;;;;;;;;;;;;;
2431;;;;;;;;;;;;;
2440;;;;;;;;;;;;;
2449;;;;;;;;;;;;;
2458;;;;;;;;;;;;;
2467;;;;;;;;;;;;;
2476;;;;;;;;;;;;;
2485;;;;;;;;;;;;;
2494;;;;;;;;;;;;;
2503;;;;;;;;;;;;;
2512;;;;;;;;;;;;;
2521;;;;;;;;;;;;;
2530;;;;;;;;;;;;;
2536;;;;;;;;;;;;;