File: carbon_superP/O2_0000rpm.txt
Index;Column 2 (V);Column 3 (V);Column 4 (V);Column 5 (V);Column 6 (V/s);Column 7 (V);Time (s);Potential applied (V);WE(1).Current (A);WE(1).Potential (V);Scan;Column 13;Column 14;Frequency (Hz);Z' (Ω);-Z'' (Ω);Z (Ω);-Phase (°);Time (s);Y' (Mho);-Y'' (Mho)
1;0;0.01;-1;-0.01;0.01;-0.00244;4455.67;-0.0146484;1.18134e-06;-0.0143707;3;3;3;100000;32.1182;2.86511;32.2458;5.09757;3832.42;0.0308891;0.00275546
11;;;;;;;4458.11;-0.0390625;4.33044e-07;-0.0389435;3;;;10000;30.7143;1.93263;30.775;3.60046;3857.83;0.0324297;0.00204057
21;;;;;;;4460.55;-0.0634766;-6.13403e-08;-0.0631714;3;;;1000;33.8432;7.2257;34.606;12.052;3878.46;0.0282598;0.00603362
31;;;;;;;4462.99;-0.0878906;-5.30701e-07;-0.0875244;3;;;100;46.3472;40.8464;61.7777;41.3902;3898.85;0.0121439;0.0107026
41;;;;;;;4465.43;-0.112305;-1.16943e-06;-0.111877;3;;;10;107.664;251.106;273.214;66.7923;3930.55;0.00144233;0.00336397
51;;;;;;;4467.87;-0.136719;-2.24884e-06;-0.136078;3;;;1;424.861;1810.31;1859.5;76.7923;3965.48;0.000122872;0.000523554
61;;;;;;;4470.31;-0.161133;-4.21448e-06;-0.160675;3;;;0.1;3065.26;13410.2;13756;77.1247;4030.44;1.61987e-05;7.08676e-05
71;;;;;;;4472.76;-0.185547;-7.69958e-06;-0.185089;3;;;;;;;;;;
81;;;;;;;4475.2;-0.209961;-1.36688e-05;-0.20932;3;;;;;;;;;;
91;;;;;;;4477.64;-0.234375;-2.35657e-05;-0.23349;3;;;;;;;;;;
101;;;;;;;4480.08;-0.258789;-3.9743e-05;-0.258118;3;;;;;;;;;;
111;;;;;;;4482.52;-0.283203;-6.54602e-05;-0.282471;3;;;;;;;;;;
121;;;;;;;4484.96;-0.307617;-0.000103668;-0.306885;3;;;;;;;;;;
131;;;;;;;4487.4;-0.332031;-0.000150391;-0.331146;3;;;;;;;;;;
141;;;;;;;4489.85;-0.356445;-0.000184662;-0.355408;3;;;;;;;;;;
151;;;;;;;4492.29;-0.380859;-0.000171967;-0.379822;3;;;;;;;;;;
161;;;;;;;4494.73;-0.405273;-0.000115662;-0.404297;3;;;;;;;;;;
171;;;;;;;4497.17;-0.4296875;-8.10242e-05;-0.428741;3;;;;;;;;;;
181;;;;;;;4499.61;-0.454102;-7.07703e-05;-0.453094;3;;;;;;;;;;
191;;;;;;;4502.05;-0.478516;-6.64368e-05;-0.477478;3;;;;;;;;;;
201;;;;;;;4504.49;-0.50293;-6.40564e-05;-0.501862;3;;;;;;;;;;
211;;;;;;;4506.94;-0.527344;-6.28662e-05;-0.526276;3;;;;;;;;;;
221;;;;;;;4509.38;-0.551758;-6.23779e-05;-0.550568;3;;;;;;;;;;
231;;;;;;;4511.82;-0.576172;-6.2439e-05;-0.574982;3;;;;;;;;;;
241;;;;;;;4514.26;-0.600586;-6.27441e-05;-0.599335;3;;;;;;;;;;
251;;;;;;;4516.7;-0.625;-6.32324e-05;-0.62381;3;;;;;;;;;;
261;;;;;;;4519.14;-0.649414;-6.37207e-05;-0.648224;3;;;;;;;;;;
271;;;;;;;4521.58;-0.673828;-6.41174e-05;-0.672546;3;;;;;;;;;;
281;;;;;;;4524.03;-0.698242;-6.40564e-05;-0.696991;3;;;;;;;;;;
291;;;;;;;4526.47;-0.722656;-6.34155e-05;-0.721405;3;;;;;;;;;;
301;;;;;;;4528.91;-0.74707;-6.22864e-05;-0.745789;3;;;;;;;;;;
311;;;;;;;4531.35;-0.771484;-6.08215e-05;-0.770874;3;;;;;;;;;;
321;;;;;;;4533.79;-0.795898;-5.93262e-05;-0.794983;3;;;;;;;;;;
331;;;;;;;4536.23;-0.8203125;-5.83496e-05;-0.820007;3;;;;;;;;;;
341;;;;;;;4538.67;-0.844727;-5.78613e-05;-0.844116;3;;;;;;;;;;
351;;;;;;;4541.12;-0.869141;-5.76782e-05;-0.868225;3;;;;;;;;;;
361;;;;;;;4543.56;-0.893555;-5.77087e-05;-0.892334;3;;;;;;;;;;
371;;;;;;;4546;-0.917969;-5.77087e-05;-0.917664;3;;;;;;;;;;
381;;;;;;;4548.44;-0.942383;-5.76782e-05;-0.942078;3;;;;;;;;;;
391;;;;;;;4550.88;-0.966797;-5.76782e-05;-0.965881;3;;;;;;;;;;
401;;;;;;;4553.32;-0.991211;-5.77698e-05;-0.98999;3;;;;;;;;;;
411;;;;;;;4555.76;-0.986328;-5.34973e-05;-0.985718;3;;;;;;;;;;
421;;;;;;;4558.21;-0.961914;-5.15137e-05;-0.960999;3;;;;;;;;;;
431;;;;;;;4560.65;-0.9375;-5.04456e-05;-0.93689;3;;;;;;;;;;
441;;;;;;;4563.09;-0.913086;-4.97437e-05;-0.912476;3;;;;;;;;;;
451;;;;;;;4565.53;-0.888672;-4.91028e-05;-0.888062;3;;;;;;;;;;
461;;;;;;;4567.97;-0.864258;-4.85718e-05;-0.863342;3;;;;;;;;;;
471;;;;;;;4570.41;-0.839844;-4.80774e-05;-0.839233;3;;;;;;;;;;
481;;;;;;;4572.85;-0.81543;-4.75983e-05;-0.814209;3;;;;;;;;;;
491;;;;;;;4575.3;-0.791016;-4.72015e-05;-0.789795;3;;;;;;;;;;
501;;;;;;;4577.74;-0.766602;-4.69299e-05;-0.765686;3;;;;;;;;;;
511;;;;;;;4580.18;-0.7421875;-4.67316e-05;-0.740936;3;;;;;;;;;;
521;;;;;;;4582.62;-0.717773;-4.65912e-05;-0.716492;3;;;;;;;;;;
531;;;;;;;4585.06;-0.693359;-4.65088e-05;-0.692047;3;;;;;;;;;;
541;;;;;;;4587.5;-0.668945;-4.64172e-05;-0.667664;3;;;;;;;;;;
551;;;;;;;4589.94;-0.644531;-4.63379e-05;-0.643341;3;;;;;;;;;;
561;;;;;;;4592.39;-0.620117;-4.62616e-05;-0.618958;3;;;;;;;;;;
571;;;;;;;4594.83;-0.595703;-4.61395e-05;-0.594574;3;;;;;;;;;;
581;;;;;;;4597.27;-0.571289;-4.59686e-05;-0.57016;3;;;;;;;;;;
591;;;;;;;4599.71;-0.546875;-4.56421e-05;-0.545807;3;;;;;;;;;;
601;;;;;;;4602.15;-0.522461;-4.52301e-05;-0.521393;3;;;;;;;;;;
611;;;;;;;4604.59;-0.498047;-4.47876e-05;-0.497101;3;;;;;;;;;;
621;;;;;;;4607.03;-0.473633;-4.42688e-05;-0.472595;3;;;;;;;;;;
631;;;;;;;4609.48;-0.449219;-4.36401e-05;-0.448273;3;;;;;;;;;;
641;;;;;;;4611.92;-0.424805;-4.27368e-05;-0.42395;3;;;;;;;;;;
651;;;;;;;4614.36;-0.400391;-4.12994e-05;-0.399536;3;;;;;;;;;;
661;;;;;;;4616.8;-0.375977;-3.89771e-05;-0.375153;3;;;;;;;;;;
671;;;;;;;4619.24;-0.3515625;-3.54584e-05;-0.3508;3;;;;;;;;;;
681;;;;;;;4621.68;-0.327148;-3.07922e-05;-0.326385;3;;;;;;;;;;
691;;;;;;;4624.12;-0.302734;-2.53906e-05;-0.302032;3;;;;;;;;;;
701;;;;;;;4626.57;-0.27832;-1.98608e-05;-0.277618;3;;;;;;;;;;
711;;;;;;;4629.01;-0.253906;-1.47156e-05;-0.253296;3;;;;;;;;;;
721;;;;;;;4631.45;-0.229492;-1.01868e-05;-0.228912;3;;;;;;;;;;
731;;;;;;;4633.89;-0.205078;-6.57043e-06;-0.204437;3;;;;;;;;;;
741;;;;;;;4636.33;-0.180664;-3.82385e-06;-0.180145;3;;;;;;;;;;
751;;;;;;;4638.77;-0.15625;-1.84509e-06;-0.155853;3;;;;;;;;;;
761;;;;;;;4641.21;-0.131836;-4.7699e-07;-0.131378;3;;;;;;;;;;
771;;;;;;;4643.65;-0.107422;5.02014e-07;-0.107208;3;;;;;;;;;;
781;;;;;;;4646.1;-0.0830078;1.20544e-06;-0.0828552;3;;;;;;;;;;
791;;;;;;;4648.54;-0.05859375;1.83899e-06;-0.0585327;3;;;;;;;;;;
801;;;;;;;4650.98;-0.0341797;2.38983e-06;-0.0338776;3;;;;;;;;;;
811;;;;;;;4653.42;-0.009765625;2.83875e-06;-0.00959473;3;;;;;;;;;;
821;;;;;;;4655.86;0.009765625;2.69836e-06;0.00997925;3;;;;;;;;;;
831;;;;;;;;;;;;;;;;;;;;;
841;;;;;;;;;;;;;;;;;;;;;
851;;;;;;;;;;;;;;;;;;;;;
861;;;;;;;;;;;;;;;;;;;;;
871;;;;;;;;;;;;;;;;;;;;;
881;;;;;;;;;;;;;;;;;;;;;
891;;;;;;;;;;;;;;;;;;;;;
901;;;;;;;;;;;;;;;;;;;;;
911;;;;;;;;;;;;;;;;;;;;;
921;;;;;;;;;;;;;;;;;;;;;
931;;;;;;;;;;;;;;;;;;;;;
941;;;;;;;;;;;;;;;;;;;;;
951;;;;;;;;;;;;;;;;;;;;;
961;;;;;;;;;;;;;;;;;;;;;
971;;;;;;;;;;;;;;;;;;;;;
981;;;;;;;;;;;;;;;;;;;;;
991;;;;;;;;;;;;;;;;;;;;;
1001;;;;;;;;;;;;;;;;;;;;;
1011;;;;;;;;;;;;;;;;;;;;;
1021;;;;;;;;;;;;;;;;;;;;;
1031;;;;;;;;;;;;;;;;;;;;;
1041;;;;;;;;;;;;;;;;;;;;;
1051;;;;;;;;;;;;;;;;;;;;;
1061;;;;;;;;;;;;;;;;;;;;;
1071;;;;;;;;;;;;;;;;;;;;;
1081;;;;;;;;;;;;;;;;;;;;;
1091;;;;;;;;;;;;;;;;;;;;;
1101;;;;;;;;;;;;;;;;;;;;;
1111;;;;;;;;;;;;;;;;;;;;;
1121;;;;;;;;;;;;;;;;;;;;;
1131;;;;;;;;;;;;;;;;;;;;;
1141;;;;;;;;;;;;;;;;;;;;;
1151;;;;;;;;;;;;;;;;;;;;;
1161;;;;;;;;;;;;;;;;;;;;;
1171;;;;;;;;;;;;;;;;;;;;;
1181;;;;;;;;;;;;;;;;;;;;;
1191;;;;;;;;;;;;;;;;;;;;;
1201;;;;;;;;;;;;;;;;;;;;;
1211;;;;;;;;;;;;;;;;;;;;;
1221;;;;;;;;;;;;;;;;;;;;;
1231;;;;;;;;;;;;;;;;;;;;;
1241;;;;;;;;;;;;;;;;;;;;;
1251;;;;;;;;;;;;;;;;;;;;;
1261;;;;;;;;;;;;;;;;;;;;;
1271;;;;;;;;;;;;;;;;;;;;;
1281;;;;;;;;;;;;;;;;;;;;;
1291;;;;;;;;;;;;;;;;;;;;;
1301;;;;;;;;;;;;;;;;;;;;;
1311;;;;;;;;;;;;;;;;;;;;;
1321;;;;;;;;;;;;;;;;;;;;;
1331;;;;;;;;;;;;;;;;;;;;;
1341;;;;;;;;;;;;;;;;;;;;;
1351;;;;;;;;;;;;;;;;;;;;;
1361;;;;;;;;;;;;;;;;;;;;;
1371;;;;;;;;;;;;;;;;;;;;;
1381;;;;;;;;;;;;;;;;;;;;;
1391;;;;;;;;;;;;;;;;;;;;;
1401;;;;;;;;;;;;;;;;;;;;;
1411;;;;;;;;;;;;;;;;;;;;;
1421;;;;;;;;;;;;;;;;;;;;;
1431;;;;;;;;;;;;;;;;;;;;;
1441;;;;;;;;;;;;;;;;;;;;;
1451;;;;;;;;;;;;;;;;;;;;;
1461;;;;;;;;;;;;;;;;;;;;;
1471;;;;;;;;;;;;;;;;;;;;;
1481;;;;;;;;;;;;;;;;;;;;;
1491;;;;;;;;;;;;;;;;;;;;;
1501;;;;;;;;;;;;;;;;;;;;;
1511;;;;;;;;;;;;;;;;;;;;;
1521;;;;;;;;;;;;;;;;;;;;;
1531;;;;;;;;;;;;;;;;;;;;;
1541;;;;;;;;;;;;;;;;;;;;;
1551;;;;;;;;;;;;;;;;;;;;;
1561;;;;;;;;;;;;;;;;;;;;;
1571;;;;;;;;;;;;;;;;;;;;;
1581;;;;;;;;;;;;;;;;;;;;;
1591;;;;;;;;;;;;;;;;;;;;;
1601;;;;;;;;;;;;;;;;;;;;;
1611;;;;;;;;;;;;;;;;;;;;;
1621;;;;;;;;;;;;;;;;;;;;;
1631;;;;;;;;;;;;;;;;;;;;;
1641;;;;;;;;;;;;;;;;;;;;;
1651;;;;;;;;;;;;;;;;;;;;;
1661;;;;;;;;;;;;;;;;;;;;;
1671;;;;;;;;;;;;;;;;;;;;;
1681;;;;;;;;;;;;;;;;;;;;;
1691;;;;;;;;;;;;;;;;;;;;;
1701;;;;;;;;;;;;;;;;;;;;;
1711;;;;;;;;;;;;;;;;;;;;;
1721;;;;;;;;;;;;;;;;;;;;;
1731;;;;;;;;;;;;;;;;;;;;;
1741;;;;;;;;;;;;;;;;;;;;;
1751;;;;;;;;;;;;;;;;;;;;;
1761;;;;;;;;;;;;;;;;;;;;;
1771;;;;;;;;;;;;;;;;;;;;;
1781;;;;;;;;;;;;;;;;;;;;;
1791;;;;;;;;;;;;;;;;;;;;;
1801;;;;;;;;;;;;;;;;;;;;;
1811;;;;;;;;;;;;;;;;;;;;;
1821;;;;;;;;;;;;;;;;;;;;;
1831;;;;;;;;;;;;;;;;;;;;;
1841;;;;;;;;;;;;;;;;;;;;;
1851;;;;;;;;;;;;;;;;;;;;;
1861;;;;;;;;;;;;;;;;;;;;;
1871;;;;;;;;;;;;;;;;;;;;;
1881;;;;;;;;;;;;;;;;;;;;;
1891;;;;;;;;;;;;;;;;;;;;;
1901;;;;;;;;;;;;;;;;;;;;;
1911;;;;;;;;;;;;;;;;;;;;;
1921;;;;;;;;;;;;;;;;;;;;;
1931;;;;;;;;;;;;;;;;;;;;;
1941;;;;;;;;;;;;;;;;;;;;;
1951;;;;;;;;;;;;;;;;;;;;;
1961;;;;;;;;;;;;;;;;;;;;;
1971;;;;;;;;;;;;;;;;;;;;;
1981;;;;;;;;;;;;;;;;;;;;;
1991;;;;;;;;;;;;;;;;;;;;;
2001;;;;;;;;;;;;;;;;;;;;;
2011;;;;;;;;;;;;;;;;;;;;;
2021;;;;;;;;;;;;;;;;;;;;;
2031;;;;;;;;;;;;;;;;;;;;;
2041;;;;;;;;;;;;;;;;;;;;;
2051;;;;;;;;;;;;;;;;;;;;;
2061;;;;;;;;;;;;;;;;;;;;;
2071;;;;;;;;;;;;;;;;;;;;;
2081;;;;;;;;;;;;;;;;;;;;;
2091;;;;;;;;;;;;;;;;;;;;;
2101;;;;;;;;;;;;;;;;;;;;;
2111;;;;;;;;;;;;;;;;;;;;;
2121;;;;;;;;;;;;;;;;;;;;;
2131;;;;;;;;;;;;;;;;;;;;;
2141;;;;;;;;;;;;;;;;;;;;;
2151;;;;;;;;;;;;;;;;;;;;;
2161;;;;;;;;;;;;;;;;;;;;;
2171;;;;;;;;;;;;;;;;;;;;;
2181;;;;;;;;;;;;;;;;;;;;;
2191;;;;;;;;;;;;;;;;;;;;;
2201;;;;;;;;;;;;;;;;;;;;;
2211;;;;;;;;;;;;;;;;;;;;;
2221;;;;;;;;;;;;;;;;;;;;;
2231;;;;;;;;;;;;;;;;;;;;;
2241;;;;;;;;;;;;;;;;;;;;;
2251;;;;;;;;;;;;;;;;;;;;;
2261;;;;;;;;;;;;;;;;;;;;;
2271;;;;;;;;;;;;;;;;;;;;;
2281;;;;;;;;;;;;;;;;;;;;;
2291;;;;;;;;;;;;;;;;;;;;;
2301;;;;;;;;;;;;;;;;;;;;;
2311;;;;;;;;;;;;;;;;;;;;;
2321;;;;;;;;;;;;;;;;;;;;;
2331;;;;;;;;;;;;;;;;;;;;;
2341;;;;;;;;;;;;;;;;;;;;;
2351;;;;;;;;;;;;;;;;;;;;;
2361;;;;;;;;;;;;;;;;;;;;;
2371;;;;;;;;;;;;;;;;;;;;;
2381;;;;;;;;;;;;;;;;;;;;;
2391;;;;;;;;;;;;;;;;;;;;;
2401;;;;;;;;;;;;;;;;;;;;;
2411;;;;;;;;;;;;;;;;;;;;;
2421;;;;;;;;;;;;;;;;;;;;;
2431;;;;;;;;;;;;;;;;;;;;;
2441;;;;;;;;;;;;;;;;;;;;;
2451;;;;;;;;;;;;;;;;;;;;;
2461;;;;;;;;;;;;;;;;;;;;;
2471;;;;;;;;;;;;;;;;;;;;;
2481;;;;;;;;;;;;;;;;;;;;;
2491;;;;;;;;;;;;;;;;;;;;;
2495;;;;;;;;;;;;;;;;;;;;;