File: carbon_superP/O2_0750rpm.txt
Index;Column 2 (V);Column 3 (V);Column 4 (V);Column 5 (V);Column 6 (V/s);Column 7 (V);Time (s);Potential applied (V);WE(1).Current (A);WE(1).Potential (V);Scan;Column 13 (RPM);ω (rad/s)
1;0;0.01;-1;-0.01;0.01;-0.00244;8275.15;-0.0146484;1.70685e-06;-0.0143921;3;750;78.5398
10;;;;;;;8277.35;-0.0366211;5.69458e-07;-0.0363373;3;;
19;;;;;;;8279.54;-0.05859375;-2.39563e-07;-0.0582886;3;;
28;;;;;;;8281.74;-0.0805664;-1.17554e-06;-0.0803223;3;;
37;;;;;;;8283.94;-0.102539;-2.51312e-06;-0.101898;3;;
46;;;;;;;8286.14;-0.124512;-4.81873e-06;-0.124115;3;;
55;;;;;;;8288.33;-0.146484;-8.9447e-06;-0.145996;3;;
64;;;;;;;8290.53;-0.168457;-1.59485e-05;-0.167877;3;;
73;;;;;;;8292.73;-0.19043;-2.80884e-05;-0.189667;3;;
82;;;;;;;8294.92;-0.212402;-4.8468e-05;-0.211823;3;;
91;;;;;;;8297.12;-0.234375;-8.32825e-05;-0.233795;3;;
100;;;;;;;8299.32;-0.256348;-0.000140594;-0.255615;3;;
109;;;;;;;8301.52;-0.27832;-0.000231537;-0.277374;3;;
118;;;;;;;8303.71;-0.300293;-0.000358551;-0.299622;3;;
127;;;;;;;8305.91;-0.322266;-0.000511475;-0.321564;3;;
136;;;;;;;8308.11;-0.344238;-0.000661621;-0.343414;3;;
145;;;;;;;8310.31;-0.366211;-0.000768738;-0.365326;3;;
154;;;;;;;8312.5;-0.388184;-0.000806885;-0.387238;3;;
163;;;;;;;8314.7;-0.410156;-0.000800476;-0.409241;3;;
172;;;;;;;8316.9;-0.432129;-0.000804749;-0.431183;3;;
181;;;;;;;8319.09;-0.454102;-0.000815125;-0.453125;3;;
190;;;;;;;8321.29;-0.476074;-0.000827332;-0.475006;3;;
199;;;;;;;8323.49;-0.498047;-0.000837097;-0.497009;3;;
208;;;;;;;8325.69;-0.52002;-0.000847473;-0.518951;3;;
217;;;;;;;8327.88;-0.541992;-0.000853271;-0.540833;3;;
226;;;;;;;8330.08;-0.563965;-0.000860291;-0.562805;3;;
235;;;;;;;8332.28;-0.5859375;-0.000864868;-0.584686;3;;
244;;;;;;;8334.48;-0.60791;-0.00086731;-0.606628;3;;
253;;;;;;;8336.67;-0.629883;-0.000867615;-0.62851;3;;
262;;;;;;;8338.87;-0.651855;-0.000863647;-0.650604;3;;
271;;;;;;;8341.07;-0.673828;-0.000861816;-0.672516;3;;
280;;;;;;;8343.26;-0.695801;-0.000856323;-0.694489;3;;
289;;;;;;;8345.46;-0.717773;-0.000854492;-0.716461;3;;
298;;;;;;;8347.66;-0.739746;-0.00085083;-0.738434;3;;
307;;;;;;;8349.86;-0.761719;-0.000850525;-0.761414;3;;
316;;;;;;;8352.05;-0.783691;-0.000848083;-0.782776;3;;
325;;;;;;;8354.25;-0.805664;-0.00085022;-0.805054;3;;
334;;;;;;;8356.45;-0.827637;-0.000853882;-0.827026;3;;
343;;;;;;;8358.65;-0.849609;-0.00085968;-0.849304;3;;
352;;;;;;;8360.84;-0.871582;-0.000864563;-0.870972;3;;
361;;;;;;;8363.04;-0.893555;-0.000869751;-0.892639;3;;
370;;;;;;;8365.24;-0.915527;-0.000873413;-0.914917;3;;
379;;;;;;;8367.43;-0.9375;-0.000871887;-0.93689;3;;
388;;;;;;;8369.63;-0.959473;-0.000872803;-0.959167;3;;
397;;;;;;;8371.83;-0.981445;-0.000868835;-0.980835;3;;
406;;;;;;;8374.03;-0.998535;-0.000863953;-0.99762;3;;
415;;;;;;;8376.22;-0.9765625;-0.000839539;-0.976257;3;;
424;;;;;;;8378.42;-0.95459;-0.000831299;-0.954285;3;;
433;;;;;;;8380.62;-0.932617;-0.000819092;-0.931702;3;;
442;;;;;;;8382.82;-0.910645;-0.000812378;-0.910339;3;;
451;;;;;;;8385.01;-0.888672;-0.000805359;-0.887756;3;;
460;;;;;;;8387.21;-0.866699;-0.00079895;-0.865479;3;;
469;;;;;;;8389.41;-0.844727;-0.000794373;-0.843811;3;;
478;;;;;;;8391.6;-0.822754;-0.000793457;-0.822144;3;;
487;;;;;;;8393.8;-0.800781;-0.000792542;-0.799866;3;;
496;;;;;;;8396;-0.778809;-0.000796509;-0.778198;3;;
505;;;;;;;8398.2;-0.756836;-0.000801697;-0.75592;3;;
514;;;;;;;8400.39;-0.734863;-0.000809021;-0.733582;3;;
523;;;;;;;8402.59;-0.712891;-0.000818787;-0.711548;3;;
532;;;;;;;8404.79;-0.690918;-0.00082428;-0.689667;3;;
541;;;;;;;8406.99;-0.668945;-0.000830994;-0.667694;3;;
550;;;;;;;8409.18;-0.646973;-0.000834045;-0.645721;3;;
559;;;;;;;8411.38;-0.625;-0.000836792;-0.623749;3;;
568;;;;;;;8413.58;-0.603027;-0.000834961;-0.601776;3;;
577;;;;;;;8415.77;-0.581055;-0.000830688;-0.579895;3;;
586;;;;;;;8417.97;-0.559082;-0.000823059;-0.557953;3;;
595;;;;;;;8420.17;-0.537109;-0.000818481;-0.53595;3;;
604;;;;;;;8422.37;-0.515137;-0.000811462;-0.51413;3;;
613;;;;;;;8424.56;-0.493164;-0.000804138;-0.492096;3;;
622;;;;;;;8426.76;-0.471191;-0.000797119;-0.470154;3;;
631;;;;;;;8428.96;-0.449219;-0.000783997;-0.448242;3;;
640;;;;;;;8431.15;-0.427246;-0.000765686;-0.426331;3;;
649;;;;;;;8433.35;-0.405273;-0.000733948;-0.404327;3;;
658;;;;;;;8435.55;-0.383301;-0.000685425;-0.382416;3;;
667;;;;;;;8437.75;-0.361328;-0.000613403;-0.360443;3;;
676;;;;;;;8439.94;-0.339355;-0.000523682;-0.338623;3;;
685;;;;;;;8442.14;-0.317383;-0.000420563;-0.31665;3;;
694;;;;;;;8444.34;-0.29541;-0.000318939;-0.294647;3;;
703;;;;;;;8446.54;-0.2734375;-0.000227081;-0.272797;3;;
712;;;;;;;8448.73;-0.251465;-0.0001539;-0.250854;3;;
721;;;;;;;8450.93;-0.229492;-9.94568e-05;-0.228943;3;;
730;;;;;;;8453.13;-0.20752;-6.23779e-05;-0.20694;3;;
739;;;;;;;8455.32;-0.185547;-3.79974e-05;-0.185059;3;;
748;;;;;;;8457.52;-0.163574;-2.24396e-05;-0.163116;3;;
757;;;;;;;8459.72;-0.141602;-1.2674e-05;-0.141235;3;;
766;;;;;;;8461.92;-0.119629;-6.50024e-06;-0.119171;3;;
775;;;;;;;8464.11;-0.09765625;-2.64679e-06;-0.0973206;3;;
784;;;;;;;8466.31;-0.0756836;-7.01904e-08;-0.0753784;3;;
793;;;;;;;8468.51;-0.0537109;1.73828e-06;-0.0536499;3;;
802;;;;;;;8470.71;-0.0317383;3.03406e-06;-0.0315643;3;;
811;;;;;;;8472.9;-0.009765625;3.81165e-06;-0.00948792;3;;
820;;;;;;;8475.1;0.012207;4.09546e-06;0.0124725;3;;
829;;;;;;;8477.3;-0.009765625;1.67542e-06;-0.00951843;3;;
838;;;;;;;;;;;;;
847;;;;;;;;;;;;;
856;;;;;;;;;;;;;
865;;;;;;;;;;;;;
874;;;;;;;;;;;;;
883;;;;;;;;;;;;;
892;;;;;;;;;;;;;
901;;;;;;;;;;;;;
910;;;;;;;;;;;;;
919;;;;;;;;;;;;;
928;;;;;;;;;;;;;
937;;;;;;;;;;;;;
946;;;;;;;;;;;;;
955;;;;;;;;;;;;;
964;;;;;;;;;;;;;
973;;;;;;;;;;;;;
982;;;;;;;;;;;;;
991;;;;;;;;;;;;;
1000;;;;;;;;;;;;;
1009;;;;;;;;;;;;;
1018;;;;;;;;;;;;;
1027;;;;;;;;;;;;;
1036;;;;;;;;;;;;;
1045;;;;;;;;;;;;;
1054;;;;;;;;;;;;;
1063;;;;;;;;;;;;;
1072;;;;;;;;;;;;;
1081;;;;;;;;;;;;;
1090;;;;;;;;;;;;;
1099;;;;;;;;;;;;;
1108;;;;;;;;;;;;;
1117;;;;;;;;;;;;;
1126;;;;;;;;;;;;;
1135;;;;;;;;;;;;;
1144;;;;;;;;;;;;;
1153;;;;;;;;;;;;;
1162;;;;;;;;;;;;;
1171;;;;;;;;;;;;;
1180;;;;;;;;;;;;;
1189;;;;;;;;;;;;;
1198;;;;;;;;;;;;;
1207;;;;;;;;;;;;;
1216;;;;;;;;;;;;;
1225;;;;;;;;;;;;;
1234;;;;;;;;;;;;;
1243;;;;;;;;;;;;;
1252;;;;;;;;;;;;;
1261;;;;;;;;;;;;;
1270;;;;;;;;;;;;;
1279;;;;;;;;;;;;;
1288;;;;;;;;;;;;;
1297;;;;;;;;;;;;;
1306;;;;;;;;;;;;;
1315;;;;;;;;;;;;;
1324;;;;;;;;;;;;;
1333;;;;;;;;;;;;;
1342;;;;;;;;;;;;;
1351;;;;;;;;;;;;;
1360;;;;;;;;;;;;;
1369;;;;;;;;;;;;;
1378;;;;;;;;;;;;;
1387;;;;;;;;;;;;;
1396;;;;;;;;;;;;;
1405;;;;;;;;;;;;;
1414;;;;;;;;;;;;;
1423;;;;;;;;;;;;;
1432;;;;;;;;;;;;;
1441;;;;;;;;;;;;;
1450;;;;;;;;;;;;;
1459;;;;;;;;;;;;;
1468;;;;;;;;;;;;;
1477;;;;;;;;;;;;;
1486;;;;;;;;;;;;;
1495;;;;;;;;;;;;;
1504;;;;;;;;;;;;;
1513;;;;;;;;;;;;;
1522;;;;;;;;;;;;;
1531;;;;;;;;;;;;;
1540;;;;;;;;;;;;;
1549;;;;;;;;;;;;;
1558;;;;;;;;;;;;;
1567;;;;;;;;;;;;;
1576;;;;;;;;;;;;;
1585;;;;;;;;;;;;;
1594;;;;;;;;;;;;;
1603;;;;;;;;;;;;;
1612;;;;;;;;;;;;;
1621;;;;;;;;;;;;;
1630;;;;;;;;;;;;;
1639;;;;;;;;;;;;;
1648;;;;;;;;;;;;;
1657;;;;;;;;;;;;;
1666;;;;;;;;;;;;;
1675;;;;;;;;;;;;;
1684;;;;;;;;;;;;;
1693;;;;;;;;;;;;;
1702;;;;;;;;;;;;;
1711;;;;;;;;;;;;;
1720;;;;;;;;;;;;;
1729;;;;;;;;;;;;;
1738;;;;;;;;;;;;;
1747;;;;;;;;;;;;;
1756;;;;;;;;;;;;;
1765;;;;;;;;;;;;;
1774;;;;;;;;;;;;;
1783;;;;;;;;;;;;;
1792;;;;;;;;;;;;;
1801;;;;;;;;;;;;;
1810;;;;;;;;;;;;;
1819;;;;;;;;;;;;;
1828;;;;;;;;;;;;;
1837;;;;;;;;;;;;;
1846;;;;;;;;;;;;;
1855;;;;;;;;;;;;;
1864;;;;;;;;;;;;;
1873;;;;;;;;;;;;;
1882;;;;;;;;;;;;;
1891;;;;;;;;;;;;;
1900;;;;;;;;;;;;;
1909;;;;;;;;;;;;;
1918;;;;;;;;;;;;;
1927;;;;;;;;;;;;;
1936;;;;;;;;;;;;;
1945;;;;;;;;;;;;;
1954;;;;;;;;;;;;;
1963;;;;;;;;;;;;;
1972;;;;;;;;;;;;;
1981;;;;;;;;;;;;;
1990;;;;;;;;;;;;;
1999;;;;;;;;;;;;;
2008;;;;;;;;;;;;;
2017;;;;;;;;;;;;;
2026;;;;;;;;;;;;;
2035;;;;;;;;;;;;;
2044;;;;;;;;;;;;;
2053;;;;;;;;;;;;;
2062;;;;;;;;;;;;;
2071;;;;;;;;;;;;;
2080;;;;;;;;;;;;;
2089;;;;;;;;;;;;;
2098;;;;;;;;;;;;;
2107;;;;;;;;;;;;;
2116;;;;;;;;;;;;;
2125;;;;;;;;;;;;;
2134;;;;;;;;;;;;;
2143;;;;;;;;;;;;;
2152;;;;;;;;;;;;;
2161;;;;;;;;;;;;;
2170;;;;;;;;;;;;;
2179;;;;;;;;;;;;;
2188;;;;;;;;;;;;;
2197;;;;;;;;;;;;;
2206;;;;;;;;;;;;;
2215;;;;;;;;;;;;;
2224;;;;;;;;;;;;;
2233;;;;;;;;;;;;;
2242;;;;;;;;;;;;;
2251;;;;;;;;;;;;;
2260;;;;;;;;;;;;;
2269;;;;;;;;;;;;;
2278;;;;;;;;;;;;;
2287;;;;;;;;;;;;;
2296;;;;;;;;;;;;;
2305;;;;;;;;;;;;;
2314;;;;;;;;;;;;;
2323;;;;;;;;;;;;;
2332;;;;;;;;;;;;;
2341;;;;;;;;;;;;;
2350;;;;;;;;;;;;;
2359;;;;;;;;;;;;;
2368;;;;;;;;;;;;;
2377;;;;;;;;;;;;;
2386;;;;;;;;;;;;;
2395;;;;;;;;;;;;;
2404;;;;;;;;;;;;;
2413;;;;;;;;;;;;;
2422;;;;;;;;;;;;;
2431;;;;;;;;;;;;;
2440;;;;;;;;;;;;;
2449;;;;;;;;;;;;;
2458;;;;;;;;;;;;;
2467;;;;;;;;;;;;;
2476;;;;;;;;;;;;;
2485;;;;;;;;;;;;;
2494;;;;;;;;;;;;;
2495;;;;;;;;;;;;;