File: carbon_superP/O2_1600rpm.txt
Index;Column 2 (V);Column 3 (V);Column 4 (V);Column 5 (V);Column 6 (V/s);Column 7 (V);Time (s);Potential applied (V);WE(1).Current (A);WE(1).Potential (V);Scan;Column 13 (RPM);ω (rad/s);Frequency (Hz);Z' (Ω);-Z'' (Ω);Z (Ω);-Phase (°);Time (s);Y' (Mho);-Y'' (Mho)
1;0;0.01;-1;-0.01;0.01;-0.00244;15867.2;-0.0146484;5.70679e-07;-0.0144653;3;1600;167.552;100000;31.4539;2.8795;31.5854;5.23066;15250.4;0.0315283;0.00288632
11;;;;;;;15869.7;-0.0390625;-6.98853e-08;-0.0387695;3;;;10000;29.375;0.8159;29.3863;1.591;15270.4;0.0340163;0.000944814
21;;;;;;;15872.1;-0.0634766;-7.1106e-07;-0.0632324;3;;;1000;30.5455;2.18497;30.6236;4.09149;15288.4;0.0325714;0.00232988
31;;;;;;;15874.6;-0.0878906;-1.60706e-06;-0.0874939;3;;;100;34.2224;8.12318;35.1733;13.3529;15306.8;0.0276621;0.006566
41;;;;;;;15877;-0.112305;-3.26599e-06;-0.111938;3;;;10;37.8795;57.961;69.2412;56.834;15345.6;0.00790089;0.0120895
51;;;;;;;15879.5;-0.136719;-6.3446e-06;-0.136261;3;;;1;58.8532;547.443;550.597;83.8639;15379.8;0.000194134;0.0018058
61;;;;;;;15881.9;-0.161133;-1.2146e-05;-0.160583;3;;;0.1;411.736;5068.97;5085.67;85.3563;15442.2;1.59192e-05;0.000195985
71;;;;;;;15884.3;-0.185547;-2.29553e-05;-0.184875;3;;;;;;;;;;
81;;;;;;;15886.8;-0.209961;-4.30176e-05;-0.209351;3;;;;;;;;;;
91;;;;;;;15889.2;-0.234375;-8.04749e-05;-0.233734;3;;;;;;;;;;
101;;;;;;;15891.7;-0.258789;-0.000148895;-0.258026;3;;;;;;;;;;
111;;;;;;;15894.1;-0.283203;-0.00026358;-0.282196;3;;;;;;;;;;
121;;;;;;;15896.5;-0.307617;-0.000428345;-0.306915;3;;;;;;;;;;
131;;;;;;;15899;-0.332031;-0.000623779;-0.331268;3;;;;;;;;;;
141;;;;;;;15901.4;-0.356445;-0.000814514;-0.35556;3;;;;;;;;;;
151;;;;;;;15903.9;-0.380859;-0.000966492;-0.379944;3;;;;;;;;;;
161;;;;;;;15906.3;-0.405273;-0.0010675;-0.404327;3;;;;;;;;;;
171;;;;;;;15908.8;-0.4296875;-0.00113129;-0.428711;3;;;;;;;;;;
181;;;;;;;15911.2;-0.454102;-0.00117432;-0.453094;3;;;;;;;;;;
191;;;;;;;15913.6;-0.478516;-0.00120728;-0.477417;3;;;;;;;;;;
201;;;;;;;15916.1;-0.50293;-0.00122955;-0.501831;3;;;;;;;;;;
211;;;;;;;15918.5;-0.527344;-0.00124634;-0.526093;3;;;;;;;;;;
221;;;;;;;15921;-0.551758;-0.00125916;-0.550507;3;;;;;;;;;;
231;;;;;;;15923.4;-0.576172;-0.00126648;-0.57486;3;;;;;;;;;;
241;;;;;;;15925.8;-0.600586;-0.00127167;-0.599213;3;;;;;;;;;;
251;;;;;;;15928.3;-0.625;-0.00127228;-0.623688;3;;;;;;;;;;
261;;;;;;;15930.7;-0.649414;-0.00127136;-0.648071;3;;;;;;;;;;
271;;;;;;;15933.2;-0.673828;-0.00126709;-0.672485;3;;;;;;;;;;
281;;;;;;;15935.6;-0.698242;-0.00126099;-0.69696;3;;;;;;;;;;
291;;;;;;;15938;-0.722656;-0.00125305;-0.721313;3;;;;;;;;;;
301;;;;;;;15940.5;-0.74707;-0.00124603;-0.745728;3;;;;;;;;;;
311;;;;;;;15942.9;-0.771484;-0.0012384;-0.771179;3;;;;;;;;;;
321;;;;;;;15945.4;-0.795898;-0.00123047;-0.795288;3;;;;;;;;;;
331;;;;;;;15947.8;-0.8203125;-0.00122925;-0.819397;3;;;;;;;;;;
341;;;;;;;15950.3;-0.844727;-0.00122864;-0.844116;3;;;;;;;;;;
351;;;;;;;15952.7;-0.869141;-0.00123383;-0.86792;3;;;;;;;;;;
361;;;;;;;15955.1;-0.893555;-0.00124176;-0.89325;3;;;;;;;;;;
371;;;;;;;15957.6;-0.917969;-0.00124695;-0.917664;3;;;;;;;;;;
381;;;;;;;15960;-0.942383;-0.00125214;-0.942078;3;;;;;;;;;;
391;;;;;;;15962.5;-0.966797;-0.00125549;-0.966187;3;;;;;;;;;;
401;;;;;;;15964.9;-0.991211;-0.00125916;-0.990906;3;;;;;;;;;;
411;;;;;;;15967.3;-0.986328;-0.00123779;-0.985413;3;;;;;;;;;;
421;;;;;;;15969.8;-0.961914;-0.00121155;-0.961304;3;;;;;;;;;;
431;;;;;;;15972.2;-0.9375;-0.00119537;-0.93689;3;;;;;;;;;;
441;;;;;;;15974.7;-0.913086;-0.00118408;-0.912781;3;;;;;;;;;;
451;;;;;;;15977.1;-0.888672;-0.00117432;-0.888062;3;;;;;;;;;;
461;;;;;;;15979.6;-0.864258;-0.00116913;-0.863647;3;;;;;;;;;;
471;;;;;;;15982;-0.839844;-0.00116882;-0.838928;3;;;;;;;;;;
481;;;;;;;15984.4;-0.81543;-0.00117249;-0.814514;3;;;;;;;;;;
491;;;;;;;15986.9;-0.791016;-0.00118256;-0.790405;3;;;;;;;;;;
501;;;;;;;15989.3;-0.766602;-0.00119537;-0.765381;3;;;;;;;;;;
511;;;;;;;15991.8;-0.7421875;-0.00121185;-0.740845;3;;;;;;;;;;
521;;;;;;;15994.2;-0.717773;-0.00122589;-0.7164;3;;;;;;;;;;
531;;;;;;;15996.6;-0.693359;-0.00124084;-0.691986;3;;;;;;;;;;
541;;;;;;;15999.1;-0.668945;-0.00125031;-0.667572;3;;;;;;;;;;
551;;;;;;;16001.5;-0.644531;-0.00125366;-0.643219;3;;;;;;;;;;
561;;;;;;;16004;-0.620117;-0.00125427;-0.618774;3;;;;;;;;;;
571;;;;;;;16006.4;-0.595703;-0.00124847;-0.594421;3;;;;;;;;;;
581;;;;;;;16008.8;-0.571289;-0.00124237;-0.570038;3;;;;;;;;;;
591;;;;;;;16011.3;-0.546875;-0.00123291;-0.545685;3;;;;;;;;;;
601;;;;;;;16013.7;-0.522461;-0.00122284;-0.521332;3;;;;;;;;;;
611;;;;;;;16016.2;-0.498047;-0.00120758;-0.496948;3;;;;;;;;;;
621;;;;;;;16018.6;-0.473633;-0.00118378;-0.472565;3;;;;;;;;;;
631;;;;;;;16021.1;-0.449219;-0.00114868;-0.448181;3;;;;;;;;;;
641;;;;;;;16023.5;-0.424805;-0.00109558;-0.423828;3;;;;;;;;;;
651;;;;;;;16025.9;-0.400391;-0.001015625;-0.399445;3;;;;;;;;;;
661;;;;;;;16028.4;-0.375977;-0.000904846;-0.375031;3;;;;;;;;;;
671;;;;;;;16030.8;-0.3515625;-0.000762024;-0.35083;3;;;;;;;;;;
681;;;;;;;16033.3;-0.327148;-0.00059906;-0.326416;3;;;;;;;;;;
691;;;;;;;16035.7;-0.302734;-0.000434753;-0.302063;3;;;;;;;;;;
701;;;;;;;16038.1;-0.27832;-0.000289703;-0.277588;3;;;;;;;;;;
711;;;;;;;16040.6;-0.253906;-0.000178131;-0.253326;3;;;;;;;;;;
721;;;;;;;16043;-0.229492;-0.000102325;-0.228912;3;;;;;;;;;;
731;;;;;;;16045.5;-0.205078;-5.57861e-05;-0.204498;3;;;;;;;;;;
741;;;;;;;16047.9;-0.180664;-2.9126e-05;-0.180115;3;;;;;;;;;;
751;;;;;;;16050.4;-0.15625;-1.43951e-05;-0.155884;3;;;;;;;;;;
761;;;;;;;16052.8;-0.131836;-6.54297e-06;-0.131378;3;;;;;;;;;;
771;;;;;;;16055.2;-0.107422;-2.42981e-06;-0.107056;3;;;;;;;;;;
781;;;;;;;16057.7;-0.0830078;-2.79541e-07;-0.0827332;3;;;;;;;;;;
791;;;;;;;16060.1;-0.05859375;8.79517e-07;-0.0584717;3;;;;;;;;;;
801;;;;;;;16062.6;-0.0341797;1.54358e-06;-0.0338196;3;;;;;;;;;;
811;;;;;;;16065;-0.009765625;1.97083e-06;-0.00960388;3;;;;;;;;;;
821;;;;;;;16067.4;0.009765625;1.86401e-06;0.010025;3;;;;;;;;;;
831;;;;;;;;;;;;;;;;;;;;;
841;;;;;;;;;;;;;;;;;;;;;
851;;;;;;;;;;;;;;;;;;;;;
861;;;;;;;;;;;;;;;;;;;;;
871;;;;;;;;;;;;;;;;;;;;;
881;;;;;;;;;;;;;;;;;;;;;
891;;;;;;;;;;;;;;;;;;;;;
901;;;;;;;;;;;;;;;;;;;;;
911;;;;;;;;;;;;;;;;;;;;;
921;;;;;;;;;;;;;;;;;;;;;
931;;;;;;;;;;;;;;;;;;;;;
941;;;;;;;;;;;;;;;;;;;;;
951;;;;;;;;;;;;;;;;;;;;;
961;;;;;;;;;;;;;;;;;;;;;
971;;;;;;;;;;;;;;;;;;;;;
981;;;;;;;;;;;;;;;;;;;;;
991;;;;;;;;;;;;;;;;;;;;;
1001;;;;;;;;;;;;;;;;;;;;;
1011;;;;;;;;;;;;;;;;;;;;;
1021;;;;;;;;;;;;;;;;;;;;;
1031;;;;;;;;;;;;;;;;;;;;;
1041;;;;;;;;;;;;;;;;;;;;;
1051;;;;;;;;;;;;;;;;;;;;;
1061;;;;;;;;;;;;;;;;;;;;;
1071;;;;;;;;;;;;;;;;;;;;;
1081;;;;;;;;;;;;;;;;;;;;;
1091;;;;;;;;;;;;;;;;;;;;;
1101;;;;;;;;;;;;;;;;;;;;;
1111;;;;;;;;;;;;;;;;;;;;;
1121;;;;;;;;;;;;;;;;;;;;;
1131;;;;;;;;;;;;;;;;;;;;;
1141;;;;;;;;;;;;;;;;;;;;;
1151;;;;;;;;;;;;;;;;;;;;;
1161;;;;;;;;;;;;;;;;;;;;;
1171;;;;;;;;;;;;;;;;;;;;;
1181;;;;;;;;;;;;;;;;;;;;;
1191;;;;;;;;;;;;;;;;;;;;;
1201;;;;;;;;;;;;;;;;;;;;;
1211;;;;;;;;;;;;;;;;;;;;;
1221;;;;;;;;;;;;;;;;;;;;;
1231;;;;;;;;;;;;;;;;;;;;;
1241;;;;;;;;;;;;;;;;;;;;;
1251;;;;;;;;;;;;;;;;;;;;;
1261;;;;;;;;;;;;;;;;;;;;;
1271;;;;;;;;;;;;;;;;;;;;;
1281;;;;;;;;;;;;;;;;;;;;;
1291;;;;;;;;;;;;;;;;;;;;;
1301;;;;;;;;;;;;;;;;;;;;;
1311;;;;;;;;;;;;;;;;;;;;;
1321;;;;;;;;;;;;;;;;;;;;;
1331;;;;;;;;;;;;;;;;;;;;;
1341;;;;;;;;;;;;;;;;;;;;;
1351;;;;;;;;;;;;;;;;;;;;;
1361;;;;;;;;;;;;;;;;;;;;;
1371;;;;;;;;;;;;;;;;;;;;;
1381;;;;;;;;;;;;;;;;;;;;;
1391;;;;;;;;;;;;;;;;;;;;;
1401;;;;;;;;;;;;;;;;;;;;;
1411;;;;;;;;;;;;;;;;;;;;;
1421;;;;;;;;;;;;;;;;;;;;;
1431;;;;;;;;;;;;;;;;;;;;;
1441;;;;;;;;;;;;;;;;;;;;;
1451;;;;;;;;;;;;;;;;;;;;;
1461;;;;;;;;;;;;;;;;;;;;;
1471;;;;;;;;;;;;;;;;;;;;;
1481;;;;;;;;;;;;;;;;;;;;;
1491;;;;;;;;;;;;;;;;;;;;;
1501;;;;;;;;;;;;;;;;;;;;;
1511;;;;;;;;;;;;;;;;;;;;;
1521;;;;;;;;;;;;;;;;;;;;;
1531;;;;;;;;;;;;;;;;;;;;;
1541;;;;;;;;;;;;;;;;;;;;;
1551;;;;;;;;;;;;;;;;;;;;;
1561;;;;;;;;;;;;;;;;;;;;;
1571;;;;;;;;;;;;;;;;;;;;;
1581;;;;;;;;;;;;;;;;;;;;;
1591;;;;;;;;;;;;;;;;;;;;;
1601;;;;;;;;;;;;;;;;;;;;;
1611;;;;;;;;;;;;;;;;;;;;;
1621;;;;;;;;;;;;;;;;;;;;;
1631;;;;;;;;;;;;;;;;;;;;;
1641;;;;;;;;;;;;;;;;;;;;;
1651;;;;;;;;;;;;;;;;;;;;;
1661;;;;;;;;;;;;;;;;;;;;;
1671;;;;;;;;;;;;;;;;;;;;;
1681;;;;;;;;;;;;;;;;;;;;;
1691;;;;;;;;;;;;;;;;;;;;;
1701;;;;;;;;;;;;;;;;;;;;;
1711;;;;;;;;;;;;;;;;;;;;;
1721;;;;;;;;;;;;;;;;;;;;;
1731;;;;;;;;;;;;;;;;;;;;;
1741;;;;;;;;;;;;;;;;;;;;;
1751;;;;;;;;;;;;;;;;;;;;;
1761;;;;;;;;;;;;;;;;;;;;;
1771;;;;;;;;;;;;;;;;;;;;;
1781;;;;;;;;;;;;;;;;;;;;;
1791;;;;;;;;;;;;;;;;;;;;;
1801;;;;;;;;;;;;;;;;;;;;;
1811;;;;;;;;;;;;;;;;;;;;;
1821;;;;;;;;;;;;;;;;;;;;;
1831;;;;;;;;;;;;;;;;;;;;;
1841;;;;;;;;;;;;;;;;;;;;;
1851;;;;;;;;;;;;;;;;;;;;;
1861;;;;;;;;;;;;;;;;;;;;;
1871;;;;;;;;;;;;;;;;;;;;;
1881;;;;;;;;;;;;;;;;;;;;;
1891;;;;;;;;;;;;;;;;;;;;;
1901;;;;;;;;;;;;;;;;;;;;;
1911;;;;;;;;;;;;;;;;;;;;;
1921;;;;;;;;;;;;;;;;;;;;;
1931;;;;;;;;;;;;;;;;;;;;;
1941;;;;;;;;;;;;;;;;;;;;;
1951;;;;;;;;;;;;;;;;;;;;;
1961;;;;;;;;;;;;;;;;;;;;;
1971;;;;;;;;;;;;;;;;;;;;;
1981;;;;;;;;;;;;;;;;;;;;;
1991;;;;;;;;;;;;;;;;;;;;;
2001;;;;;;;;;;;;;;;;;;;;;
2011;;;;;;;;;;;;;;;;;;;;;
2021;;;;;;;;;;;;;;;;;;;;;
2031;;;;;;;;;;;;;;;;;;;;;
2041;;;;;;;;;;;;;;;;;;;;;
2051;;;;;;;;;;;;;;;;;;;;;
2061;;;;;;;;;;;;;;;;;;;;;
2071;;;;;;;;;;;;;;;;;;;;;
2081;;;;;;;;;;;;;;;;;;;;;
2091;;;;;;;;;;;;;;;;;;;;;
2101;;;;;;;;;;;;;;;;;;;;;
2111;;;;;;;;;;;;;;;;;;;;;
2121;;;;;;;;;;;;;;;;;;;;;
2131;;;;;;;;;;;;;;;;;;;;;
2141;;;;;;;;;;;;;;;;;;;;;
2151;;;;;;;;;;;;;;;;;;;;;
2161;;;;;;;;;;;;;;;;;;;;;
2171;;;;;;;;;;;;;;;;;;;;;
2181;;;;;;;;;;;;;;;;;;;;;
2191;;;;;;;;;;;;;;;;;;;;;
2201;;;;;;;;;;;;;;;;;;;;;
2211;;;;;;;;;;;;;;;;;;;;;
2221;;;;;;;;;;;;;;;;;;;;;
2231;;;;;;;;;;;;;;;;;;;;;
2241;;;;;;;;;;;;;;;;;;;;;
2251;;;;;;;;;;;;;;;;;;;;;
2261;;;;;;;;;;;;;;;;;;;;;
2271;;;;;;;;;;;;;;;;;;;;;
2281;;;;;;;;;;;;;;;;;;;;;
2291;;;;;;;;;;;;;;;;;;;;;
2301;;;;;;;;;;;;;;;;;;;;;
2311;;;;;;;;;;;;;;;;;;;;;
2321;;;;;;;;;;;;;;;;;;;;;
2331;;;;;;;;;;;;;;;;;;;;;
2341;;;;;;;;;;;;;;;;;;;;;
2351;;;;;;;;;;;;;;;;;;;;;
2361;;;;;;;;;;;;;;;;;;;;;
2371;;;;;;;;;;;;;;;;;;;;;
2381;;;;;;;;;;;;;;;;;;;;;
2391;;;;;;;;;;;;;;;;;;;;;
2401;;;;;;;;;;;;;;;;;;;;;
2411;;;;;;;;;;;;;;;;;;;;;
2421;;;;;;;;;;;;;;;;;;;;;
2431;;;;;;;;;;;;;;;;;;;;;
2441;;;;;;;;;;;;;;;;;;;;;
2451;;;;;;;;;;;;;;;;;;;;;
2461;;;;;;;;;;;;;;;;;;;;;
2471;;;;;;;;;;;;;;;;;;;;;
2481;;;;;;;;;;;;;;;;;;;;;
2491;;;;;;;;;;;;;;;;;;;;;
2495;;;;;;;;;;;;;;;;;;;;;