File: carbon_superP/O2_1200rpm.txt
Index;Column 2 (V);Column 3 (V);Column 4 (V);Column 5 (V);Column 6 (V/s);Column 7 (V);Time (s);Potential applied (V);WE(1).Current (A);WE(1).Potential (V);Scan;Column 13 (RPM);ω (rad/s)
1;0;0.01;-1;-0.01;0.01;-0.00244;10699.2;-0.0146484;8.45947e-07;-0.0144409;3;1200;125.664
10;;;;;;;10701.4;-0.0366211;1.49841e-07;-0.0363159;3;;
19;;;;;;;10703.6;-0.05859375;-4.71497e-07;-0.0582581;3;;
28;;;;;;;10705.8;-0.0805664;-1.24268e-06;-0.0802002;3;;
37;;;;;;;10708;-0.102539;-2.50549e-06;-0.101868;3;;
46;;;;;;;10710.2;-0.124512;-4.68445e-06;-0.124115;3;;
55;;;;;;;10712.4;-0.146484;-8.57849e-06;-0.145996;3;;
64;;;;;;;10714.6;-0.168457;-1.53107e-05;-0.167847;3;;
73;;;;;;;10716.8;-0.19043;-2.7066e-05;-0.189575;3;;
82;;;;;;;10719;-0.212402;-4.72748e-05;-0.211792;3;;
91;;;;;;;10721.2;-0.234375;-8.21838e-05;-0.233765;3;;
100;;;;;;;10723.4;-0.256348;-0.000141541;-0.255615;3;;
109;;;;;;;10725.6;-0.27832;-0.000236115;-0.277344;3;;
118;;;;;;;10727.8;-0.300293;-0.000370178;-0.299561;3;;
127;;;;;;;10730;-0.322266;-0.000531921;-0.321533;3;;
136;;;;;;;10732.2;-0.344238;-0.000695496;-0.343445;3;;
145;;;;;;;10734.3;-0.366211;-0.000829468;-0.365295;3;;
154;;;;;;;10736.5;-0.388184;-0.00091217;-0.387299;3;;
163;;;;;;;10738.7;-0.410156;-0.000955811;-0.40921;3;;
172;;;;;;;10740.9;-0.432129;-0.000986938;-0.431091;3;;
181;;;;;;;10743.1;-0.454102;-0.00101318;-0.453064;3;;
190;;;;;;;10745.3;-0.476074;-0.00103485;-0.475006;3;;
199;;;;;;;10747.5;-0.498047;-0.00105072;-0.496979;3;;
208;;;;;;;10749.7;-0.52002;-0.00106445;-0.51889;3;;
217;;;;;;;10751.9;-0.541992;-0.00107391;-0.540833;3;;
226;;;;;;;10754.1;-0.563965;-0.00108124;-0.562744;3;;
235;;;;;;;10756.3;-0.5859375;-0.00108734;-0.584686;3;;
244;;;;;;;10758.5;-0.60791;-0.00109039;-0.606598;3;;
253;;;;;;;10760.7;-0.629883;-0.00109253;-0.628571;3;;
262;;;;;;;10762.9;-0.651855;-0.00108917;-0.650543;3;;
271;;;;;;;10765.1;-0.673828;-0.00108673;-0.672485;3;;
280;;;;;;;10767.3;-0.695801;-0.00108215;-0.694458;3;;
289;;;;;;;10769.5;-0.717773;-0.00107605;-0.716431;3;;
298;;;;;;;10771.7;-0.739746;-0.00107025;-0.738434;3;;
307;;;;;;;10773.9;-0.761719;-0.00106537;-0.761108;3;;
316;;;;;;;10776.1;-0.783691;-0.0010611;-0.782471;3;;
325;;;;;;;10778.3;-0.805664;-0.00105957;-0.804749;3;;
334;;;;;;;10780.5;-0.827637;-0.00106293;-0.827026;3;;
343;;;;;;;10782.7;-0.849609;-0.00106537;-0.849304;3;;
352;;;;;;;10784.9;-0.871582;-0.00107147;-0.870667;3;;
361;;;;;;;10787.1;-0.893555;-0.00108002;-0.892944;3;;
370;;;;;;;10789.3;-0.915527;-0.00108398;-0.915222;3;;
379;;;;;;;10791.5;-0.9375;-0.00108917;-0.937195;3;;
388;;;;;;;10793.7;-0.959473;-0.00109283;-0.958862;3;;
397;;;;;;;10795.9;-0.981445;-0.00109528;-0.980835;3;;
406;;;;;;;10798.1;-0.998535;-0.00109283;-0.99823;3;;
415;;;;;;;10800.3;-0.9765625;-0.00106049;-0.975952;3;;
424;;;;;;;10802.5;-0.95459;-0.00104309;-0.953674;3;;
433;;;;;;;10804.7;-0.932617;-0.00103058;-0.932312;3;;
442;;;;;;;10806.9;-0.910645;-0.00101959;-0.909424;3;;
451;;;;;;;10809.1;-0.888672;-0.00101135;-0.888062;3;;
460;;;;;;;10811.3;-0.866699;-0.00100616;-0.865479;3;;
469;;;;;;;10813.4;-0.844727;-0.00100372;-0.844116;3;;
478;;;;;;;10815.6;-0.822754;-0.0010022;-0.821838;3;;
487;;;;;;;10817.8;-0.800781;-0.00100677;-0.800476;3;;
496;;;;;;;10820;-0.778809;-0.0010141;-0.777893;3;;
505;;;;;;;10822.2;-0.756836;-0.00102173;-0.75592;3;;
514;;;;;;;10824.4;-0.734863;-0.00103485;-0.733521;3;;
523;;;;;;;10826.6;-0.712891;-0.00104645;-0.711578;3;;
532;;;;;;;10828.8;-0.690918;-0.00105713;-0.689484;3;;
541;;;;;;;10831;-0.668945;-0.00106689;-0.667633;3;;
550;;;;;;;10833.2;-0.646973;-0.00106903;-0.64566;3;;
559;;;;;;;10835.4;-0.625;-0.00106995;-0.623688;3;;
568;;;;;;;10837.6;-0.603027;-0.0010675;-0.601746;3;;
577;;;;;;;10839.8;-0.581055;-0.00105957;-0.579773;3;;
586;;;;;;;10842;-0.559082;-0.00105499;-0.557892;3;;
595;;;;;;;10844.2;-0.537109;-0.00104675;-0.535919;3;;
604;;;;;;;10846.4;-0.515137;-0.00103638;-0.514008;3;;
613;;;;;;;10848.6;-0.493164;-0.00102509;-0.492035;3;;
622;;;;;;;10850.8;-0.471191;-0.00101013;-0.470123;3;;
631;;;;;;;10853;-0.449219;-0.00098938;-0.448181;3;;
640;;;;;;;10855.2;-0.427246;-0.000957031;-0.42627;3;;
649;;;;;;;10857.4;-0.405273;-0.000908508;-0.404327;3;;
658;;;;;;;10859.6;-0.383301;-0.000836792;-0.382416;3;;
667;;;;;;;10861.8;-0.361328;-0.000740356;-0.360504;3;;
676;;;;;;;10864;-0.339355;-0.000622559;-0.338562;3;;
685;;;;;;;10866.2;-0.317383;-0.000493042;-0.31665;3;;
694;;;;;;;10868.4;-0.29541;-0.000365723;-0.294647;3;;
703;;;;;;;10870.6;-0.2734375;-0.000254272;-0.272797;3;;
712;;;;;;;10872.8;-0.251465;-0.000166473;-0.250854;3;;
721;;;;;;;10875;-0.229492;-0.00010376;-0.228912;3;;
730;;;;;;;10877.2;-0.20752;-6.23474e-05;-0.20697;3;;
739;;;;;;;10879.4;-0.185547;-3.63434e-05;-0.184967;3;;
748;;;;;;;10881.6;-0.163574;-2.04224e-05;-0.163116;3;;
757;;;;;;;10883.8;-0.141602;-1.08948e-05;-0.141205;3;;
766;;;;;;;10886;-0.119629;-5.30396e-06;-0.119202;3;;
775;;;;;;;10888.2;-0.09765625;-1.99585e-06;-0.0973511;3;;
784;;;;;;;10890.4;-0.0756836;-7.32422e-09;-0.07547;3;;
793;;;;;;;10892.6;-0.0537109;1.20361e-06;-0.0535889;3;;
802;;;;;;;10894.7;-0.0317383;2.00043e-06;-0.0314575;3;;
811;;;;;;;10896.9;-0.009765625;2.47742e-06;-0.00953064;3;;
820;;;;;;;10899.1;0.012207;2.69012e-06;0.0123993;3;;
829;;;;;;;10901.3;-0.009765625;1.01593e-06;-0.00942383;3;;
838;;;;;;;;;;;;;
847;;;;;;;;;;;;;
856;;;;;;;;;;;;;
865;;;;;;;;;;;;;
874;;;;;;;;;;;;;
883;;;;;;;;;;;;;
892;;;;;;;;;;;;;
901;;;;;;;;;;;;;
910;;;;;;;;;;;;;
919;;;;;;;;;;;;;
928;;;;;;;;;;;;;
937;;;;;;;;;;;;;
946;;;;;;;;;;;;;
955;;;;;;;;;;;;;
964;;;;;;;;;;;;;
973;;;;;;;;;;;;;
982;;;;;;;;;;;;;
991;;;;;;;;;;;;;
1000;;;;;;;;;;;;;
1009;;;;;;;;;;;;;
1018;;;;;;;;;;;;;
1027;;;;;;;;;;;;;
1036;;;;;;;;;;;;;
1045;;;;;;;;;;;;;
1054;;;;;;;;;;;;;
1063;;;;;;;;;;;;;
1072;;;;;;;;;;;;;
1081;;;;;;;;;;;;;
1090;;;;;;;;;;;;;
1099;;;;;;;;;;;;;
1108;;;;;;;;;;;;;
1117;;;;;;;;;;;;;
1126;;;;;;;;;;;;;
1135;;;;;;;;;;;;;
1144;;;;;;;;;;;;;
1153;;;;;;;;;;;;;
1162;;;;;;;;;;;;;
1171;;;;;;;;;;;;;
1180;;;;;;;;;;;;;
1189;;;;;;;;;;;;;
1198;;;;;;;;;;;;;
1207;;;;;;;;;;;;;
1216;;;;;;;;;;;;;
1225;;;;;;;;;;;;;
1234;;;;;;;;;;;;;
1243;;;;;;;;;;;;;
1252;;;;;;;;;;;;;
1261;;;;;;;;;;;;;
1270;;;;;;;;;;;;;
1279;;;;;;;;;;;;;
1288;;;;;;;;;;;;;
1297;;;;;;;;;;;;;
1306;;;;;;;;;;;;;
1315;;;;;;;;;;;;;
1324;;;;;;;;;;;;;
1333;;;;;;;;;;;;;
1342;;;;;;;;;;;;;
1351;;;;;;;;;;;;;
1360;;;;;;;;;;;;;
1369;;;;;;;;;;;;;
1378;;;;;;;;;;;;;
1387;;;;;;;;;;;;;
1396;;;;;;;;;;;;;
1405;;;;;;;;;;;;;
1414;;;;;;;;;;;;;
1423;;;;;;;;;;;;;
1432;;;;;;;;;;;;;
1441;;;;;;;;;;;;;
1450;;;;;;;;;;;;;
1459;;;;;;;;;;;;;
1468;;;;;;;;;;;;;
1477;;;;;;;;;;;;;
1486;;;;;;;;;;;;;
1495;;;;;;;;;;;;;
1504;;;;;;;;;;;;;
1513;;;;;;;;;;;;;
1522;;;;;;;;;;;;;
1531;;;;;;;;;;;;;
1540;;;;;;;;;;;;;
1549;;;;;;;;;;;;;
1558;;;;;;;;;;;;;
1567;;;;;;;;;;;;;
1576;;;;;;;;;;;;;
1585;;;;;;;;;;;;;
1594;;;;;;;;;;;;;
1603;;;;;;;;;;;;;
1612;;;;;;;;;;;;;
1621;;;;;;;;;;;;;
1630;;;;;;;;;;;;;
1639;;;;;;;;;;;;;
1648;;;;;;;;;;;;;
1657;;;;;;;;;;;;;
1666;;;;;;;;;;;;;
1675;;;;;;;;;;;;;
1684;;;;;;;;;;;;;
1693;;;;;;;;;;;;;
1702;;;;;;;;;;;;;
1711;;;;;;;;;;;;;
1720;;;;;;;;;;;;;
1729;;;;;;;;;;;;;
1738;;;;;;;;;;;;;
1747;;;;;;;;;;;;;
1756;;;;;;;;;;;;;
1765;;;;;;;;;;;;;
1774;;;;;;;;;;;;;
1783;;;;;;;;;;;;;
1792;;;;;;;;;;;;;
1801;;;;;;;;;;;;;
1810;;;;;;;;;;;;;
1819;;;;;;;;;;;;;
1828;;;;;;;;;;;;;
1837;;;;;;;;;;;;;
1846;;;;;;;;;;;;;
1855;;;;;;;;;;;;;
1864;;;;;;;;;;;;;
1873;;;;;;;;;;;;;
1882;;;;;;;;;;;;;
1891;;;;;;;;;;;;;
1900;;;;;;;;;;;;;
1909;;;;;;;;;;;;;
1918;;;;;;;;;;;;;
1927;;;;;;;;;;;;;
1936;;;;;;;;;;;;;
1945;;;;;;;;;;;;;
1954;;;;;;;;;;;;;
1963;;;;;;;;;;;;;
1972;;;;;;;;;;;;;
1981;;;;;;;;;;;;;
1990;;;;;;;;;;;;;
1999;;;;;;;;;;;;;
2008;;;;;;;;;;;;;
2017;;;;;;;;;;;;;
2026;;;;;;;;;;;;;
2035;;;;;;;;;;;;;
2044;;;;;;;;;;;;;
2053;;;;;;;;;;;;;
2062;;;;;;;;;;;;;
2071;;;;;;;;;;;;;
2080;;;;;;;;;;;;;
2089;;;;;;;;;;;;;
2098;;;;;;;;;;;;;
2107;;;;;;;;;;;;;
2116;;;;;;;;;;;;;
2125;;;;;;;;;;;;;
2134;;;;;;;;;;;;;
2143;;;;;;;;;;;;;
2152;;;;;;;;;;;;;
2161;;;;;;;;;;;;;
2170;;;;;;;;;;;;;
2179;;;;;;;;;;;;;
2188;;;;;;;;;;;;;
2197;;;;;;;;;;;;;
2206;;;;;;;;;;;;;
2215;;;;;;;;;;;;;
2224;;;;;;;;;;;;;
2233;;;;;;;;;;;;;
2242;;;;;;;;;;;;;
2251;;;;;;;;;;;;;
2260;;;;;;;;;;;;;
2269;;;;;;;;;;;;;
2278;;;;;;;;;;;;;
2287;;;;;;;;;;;;;
2296;;;;;;;;;;;;;
2305;;;;;;;;;;;;;
2314;;;;;;;;;;;;;
2323;;;;;;;;;;;;;
2332;;;;;;;;;;;;;
2341;;;;;;;;;;;;;
2350;;;;;;;;;;;;;
2359;;;;;;;;;;;;;
2368;;;;;;;;;;;;;
2377;;;;;;;;;;;;;
2386;;;;;;;;;;;;;
2395;;;;;;;;;;;;;
2404;;;;;;;;;;;;;
2413;;;;;;;;;;;;;
2422;;;;;;;;;;;;;
2431;;;;;;;;;;;;;
2440;;;;;;;;;;;;;
2449;;;;;;;;;;;;;
2458;;;;;;;;;;;;;
2467;;;;;;;;;;;;;
2476;;;;;;;;;;;;;
2485;;;;;;;;;;;;;
2494;;;;;;;;;;;;;
2495;;;;;;;;;;;;;