File: carbon_superP/O2_1000rpm.txt
Index;Column 2 (V);Column 3 (V);Column 4 (V);Column 5 (V);Column 6 (V/s);Column 7 (V);Time (s);Potential applied (V);WE(1).Current (A);WE(1).Potential (V);Scan;Column 13 (RPM);ω (rad/s)
1;0.1;0.11;-0.9;-0.01;0.01;-0.00244;10384.4;-0.014801;-9.65576e-07;-0.0144562;3;1000;104.72
10;;;;;;;10386.6;-0.0367737;-1.01044e-05;-0.0364227;3;;
19;;;;;;;10388.8;-0.0587463;-5.87769e-05;-0.0584106;3;;
28;;;;;;;10391;-0.080719;-0.000181152;-0.0801392;3;;
37;;;;;;;10393.2;-0.102692;-0.000350281;-0.102264;3;;
46;;;;;;;10395.4;-0.124664;-0.000508728;-0.124176;3;;
55;;;;;;;10397.6;-0.146637;-0.000588074;-0.146149;3;;
64;;;;;;;10399.8;-0.16861;-0.000620728;-0.168091;3;;
73;;;;;;;10402;-0.190582;-0.000649109;-0.190002;3;;
82;;;;;;;10404.2;-0.212555;-0.000670776;-0.211884;3;;
91;;;;;;;10406.4;-0.234528;-0.00068573;-0.233856;3;;
100;;;;;;;10408.6;-0.2565;-0.00069458;-0.255768;3;;
109;;;;;;;10410.8;-0.278473;-0.000701904;-0.277679;3;;
118;;;;;;;10413;-0.300446;-0.000707397;-0.299652;3;;
127;;;;;;;10415.2;-0.322418;-0.000711365;-0.321564;3;;
136;;;;;;;10417.3;-0.344391;-0.000716553;-0.343536;3;;
145;;;;;;;10419.5;-0.366364;-0.000717468;-0.365448;3;;
154;;;;;;;10421.7;-0.388336;-0.000719299;-0.38736;3;;
163;;;;;;;10423.9;-0.410309;-0.000722351;-0.409332;3;;
172;;;;;;;10426.1;-0.432281;-0.000724792;-0.431305;3;;
181;;;;;;;10428.3;-0.454254;-0.000725708;-0.453217;3;;
190;;;;;;;10430.5;-0.476227;-0.000726929;-0.475128;3;;
199;;;;;;;10432.7;-0.498199;-0.00072998;-0.49707;3;;
208;;;;;;;10434.9;-0.520172;-0.000730896;-0.518982;3;;
217;;;;;;;10437.1;-0.542145;-0.000736694;-0.540955;3;;
226;;;;;;;10439.3;-0.564117;-0.000739441;-0.562897;3;;
235;;;;;;;10441.5;-0.58609;-0.000743713;-0.584778;3;;
244;;;;;;;10443.7;-0.608063;-0.000748291;-0.606689;3;;
253;;;;;;;10445.9;-0.630035;-0.000753174;-0.628693;3;;
262;;;;;;;10448.1;-0.652008;-0.000758667;-0.650665;3;;
271;;;;;;;10450.3;-0.673981;-0.000760803;-0.672638;3;;
280;;;;;;;10452.5;-0.695953;-0.000765686;-0.69458;3;;
289;;;;;;;10454.7;-0.717926;-0.00076416;-0.716553;3;;
298;;;;;;;10456.9;-0.739899;-0.000766296;-0.738525;3;;
307;;;;;;;10459.1;-0.761871;-0.000765076;-0.760803;3;;
316;;;;;;;10461.3;-0.783844;-0.000764771;-0.782471;3;;
325;;;;;;;10463.5;-0.805817;-0.000762024;-0.804749;3;;
334;;;;;;;10465.7;-0.827789;-0.000756836;-0.826721;3;;
343;;;;;;;10467.9;-0.849762;-0.000751953;-0.848694;3;;
352;;;;;;;10470.1;-0.871735;-0.00074707;-0.870667;3;;
361;;;;;;;10472.3;-0.893707;-0.000740967;-0.892944;3;;
370;;;;;;;10474.5;-0.886383;-0.000739136;-0.885315;3;;
379;;;;;;;10476.7;-0.86441;-0.000741577;-0.863342;3;;
388;;;;;;;10478.9;-0.842438;-0.00074707;-0.841675;3;;
397;;;;;;;10481.1;-0.820465;-0.000751038;-0.819397;3;;
406;;;;;;;10483.3;-0.798492;-0.000752869;-0.797424;3;;
415;;;;;;;10485.5;-0.77652;-0.000755615;-0.775757;3;;
424;;;;;;;10487.7;-0.754547;-0.00075592;-0.753479;3;;
433;;;;;;;10489.9;-0.732574;-0.000755615;-0.731201;3;;
442;;;;;;;10492.1;-0.710602;-0.000754089;-0.709198;3;;
451;;;;;;;10494.3;-0.688629;-0.000751648;-0.687256;3;;
460;;;;;;;10496.4;-0.666656;-0.000749512;-0.665283;3;;
469;;;;;;;10498.6;-0.644684;-0.000744934;-0.643372;3;;
478;;;;;;;10500.8;-0.622711;-0.000740662;-0.621368;3;;
487;;;;;;;10503;-0.600739;-0.000737915;-0.599396;3;;
496;;;;;;;10505.2;-0.578766;-0.000732422;-0.577545;3;;
505;;;;;;;10507.4;-0.556793;-0.00072876;-0.555603;3;;
514;;;;;;;10509.6;-0.534821;-0.000725403;-0.5336;3;;
523;;;;;;;10511.8;-0.512848;-0.000723877;-0.511688;3;;
532;;;;;;;10514;-0.490875;-0.000721741;-0.489716;3;;
541;;;;;;;10516.2;-0.468903;-0.00071991;-0.467773;3;;
550;;;;;;;10518.4;-0.44693;-0.000716858;-0.445831;3;;
559;;;;;;;10520.6;-0.424957;-0.000715637;-0.424011;3;;
568;;;;;;;10522.8;-0.402985;-0.000714111;-0.402008;3;;
577;;;;;;;10525;-0.381012;-0.000712585;-0.380096;3;;
586;;;;;;;10527.2;-0.359039;-0.000710144;-0.358124;3;;
595;;;;;;;10529.4;-0.337067;-0.000706177;-0.336243;3;;
604;;;;;;;10531.6;-0.315094;-0.000703735;-0.31427;3;;
613;;;;;;;10533.8;-0.293121;-0.000698853;-0.292328;3;;
622;;;;;;;10536;-0.271149;-0.00069458;-0.270447;3;;
631;;;;;;;10538.2;-0.249176;-0.000686646;-0.248444;3;;
640;;;;;;;10540.4;-0.227203;-0.00067627;-0.226501;3;;
649;;;;;;;10542.6;-0.205231;-0.000661926;-0.204529;3;;
658;;;;;;;10544.8;-0.183258;-0.000636902;-0.182678;3;;
667;;;;;;;10547;-0.161285;-0.000592957;-0.160706;3;;
676;;;;;;;10549.2;-0.139313;-0.000513611;-0.138824;3;;
685;;;;;;;10551.4;-0.11734;-0.000393372;-0.116882;3;;
694;;;;;;;10553.6;-0.0953674;-0.000248566;-0.0950012;3;;
703;;;;;;;10555.8;-0.0733948;-0.000115082;-0.0730896;3;;
712;;;;;;;10558;-0.0514221;-3.15796e-05;-0.0510559;3;;
721;;;;;;;10560.2;-0.0294495;-3.96545e-06;-0.0291229;3;;
730;;;;;;;10562.4;-0.00747681;7.01904e-07;-0.0072113;3;;
739;;;;;;;10564.6;0.0144958;1.297e-06;0.0147644;3;;
748;;;;;;;10566.8;0.0364685;1.41235e-06;0.0367401;3;;
757;;;;;;;10569;0.0584412;1.51581e-06;0.0583496;3;;
766;;;;;;;10571.2;0.0804138;1.63635e-06;0.0802917;3;;
775;;;;;;;10573.4;0.102386;1.80786e-06;0.102356;3;;
784;;;;;;;10575.6;0.0999451;1.31287e-06;0.099884;3;;
793;;;;;;;10577.7;0.0779724;9.07898e-07;0.0779724;3;;
802;;;;;;;10579.9;0.0559998;6.79321e-07;0.0560303;3;;
811;;;;;;;10582.1;0.0340271;5.24902e-07;0.0343201;3;;
820;;;;;;;10584.3;0.0120544;3.25317e-07;0.0123566;3;;
829;;;;;;;10586.5;-0.00991821;-4.3396e-07;-0.00960083;3;;
838;;;;;;;;;;;;;
847;;;;;;;;;;;;;
856;;;;;;;;;;;;;
865;;;;;;;;;;;;;
874;;;;;;;;;;;;;
883;;;;;;;;;;;;;
892;;;;;;;;;;;;;
901;;;;;;;;;;;;;
910;;;;;;;;;;;;;
919;;;;;;;;;;;;;
928;;;;;;;;;;;;;
937;;;;;;;;;;;;;
946;;;;;;;;;;;;;
955;;;;;;;;;;;;;
964;;;;;;;;;;;;;
973;;;;;;;;;;;;;
982;;;;;;;;;;;;;
991;;;;;;;;;;;;;
1000;;;;;;;;;;;;;
1009;;;;;;;;;;;;;
1018;;;;;;;;;;;;;
1027;;;;;;;;;;;;;
1036;;;;;;;;;;;;;
1045;;;;;;;;;;;;;
1054;;;;;;;;;;;;;
1063;;;;;;;;;;;;;
1072;;;;;;;;;;;;;
1081;;;;;;;;;;;;;
1090;;;;;;;;;;;;;
1099;;;;;;;;;;;;;
1108;;;;;;;;;;;;;
1117;;;;;;;;;;;;;
1126;;;;;;;;;;;;;
1135;;;;;;;;;;;;;
1144;;;;;;;;;;;;;
1153;;;;;;;;;;;;;
1162;;;;;;;;;;;;;
1171;;;;;;;;;;;;;
1180;;;;;;;;;;;;;
1189;;;;;;;;;;;;;
1198;;;;;;;;;;;;;
1207;;;;;;;;;;;;;
1216;;;;;;;;;;;;;
1225;;;;;;;;;;;;;
1234;;;;;;;;;;;;;
1243;;;;;;;;;;;;;
1252;;;;;;;;;;;;;
1261;;;;;;;;;;;;;
1270;;;;;;;;;;;;;
1279;;;;;;;;;;;;;
1288;;;;;;;;;;;;;
1297;;;;;;;;;;;;;
1306;;;;;;;;;;;;;
1315;;;;;;;;;;;;;
1324;;;;;;;;;;;;;
1333;;;;;;;;;;;;;
1342;;;;;;;;;;;;;
1351;;;;;;;;;;;;;
1360;;;;;;;;;;;;;
1369;;;;;;;;;;;;;
1378;;;;;;;;;;;;;
1387;;;;;;;;;;;;;
1396;;;;;;;;;;;;;
1405;;;;;;;;;;;;;
1414;;;;;;;;;;;;;
1423;;;;;;;;;;;;;
1432;;;;;;;;;;;;;
1441;;;;;;;;;;;;;
1450;;;;;;;;;;;;;
1459;;;;;;;;;;;;;
1468;;;;;;;;;;;;;
1477;;;;;;;;;;;;;
1486;;;;;;;;;;;;;
1495;;;;;;;;;;;;;
1504;;;;;;;;;;;;;
1513;;;;;;;;;;;;;
1522;;;;;;;;;;;;;
1531;;;;;;;;;;;;;
1540;;;;;;;;;;;;;
1549;;;;;;;;;;;;;
1558;;;;;;;;;;;;;
1567;;;;;;;;;;;;;
1576;;;;;;;;;;;;;
1585;;;;;;;;;;;;;
1594;;;;;;;;;;;;;
1603;;;;;;;;;;;;;
1612;;;;;;;;;;;;;
1621;;;;;;;;;;;;;
1630;;;;;;;;;;;;;
1639;;;;;;;;;;;;;
1648;;;;;;;;;;;;;
1657;;;;;;;;;;;;;
1666;;;;;;;;;;;;;
1675;;;;;;;;;;;;;
1684;;;;;;;;;;;;;
1693;;;;;;;;;;;;;
1702;;;;;;;;;;;;;
1711;;;;;;;;;;;;;
1720;;;;;;;;;;;;;
1729;;;;;;;;;;;;;
1738;;;;;;;;;;;;;
1747;;;;;;;;;;;;;
1756;;;;;;;;;;;;;
1765;;;;;;;;;;;;;
1774;;;;;;;;;;;;;
1783;;;;;;;;;;;;;
1792;;;;;;;;;;;;;
1801;;;;;;;;;;;;;
1810;;;;;;;;;;;;;
1819;;;;;;;;;;;;;
1828;;;;;;;;;;;;;
1837;;;;;;;;;;;;;
1846;;;;;;;;;;;;;
1855;;;;;;;;;;;;;
1864;;;;;;;;;;;;;
1873;;;;;;;;;;;;;
1882;;;;;;;;;;;;;
1891;;;;;;;;;;;;;
1900;;;;;;;;;;;;;
1909;;;;;;;;;;;;;
1918;;;;;;;;;;;;;
1927;;;;;;;;;;;;;
1936;;;;;;;;;;;;;
1945;;;;;;;;;;;;;
1954;;;;;;;;;;;;;
1963;;;;;;;;;;;;;
1972;;;;;;;;;;;;;
1981;;;;;;;;;;;;;
1990;;;;;;;;;;;;;
1999;;;;;;;;;;;;;
2008;;;;;;;;;;;;;
2017;;;;;;;;;;;;;
2026;;;;;;;;;;;;;
2035;;;;;;;;;;;;;
2044;;;;;;;;;;;;;
2053;;;;;;;;;;;;;
2062;;;;;;;;;;;;;
2071;;;;;;;;;;;;;
2080;;;;;;;;;;;;;
2089;;;;;;;;;;;;;
2098;;;;;;;;;;;;;
2107;;;;;;;;;;;;;
2116;;;;;;;;;;;;;
2125;;;;;;;;;;;;;
2134;;;;;;;;;;;;;
2143;;;;;;;;;;;;;
2152;;;;;;;;;;;;;
2161;;;;;;;;;;;;;
2170;;;;;;;;;;;;;
2179;;;;;;;;;;;;;
2188;;;;;;;;;;;;;
2197;;;;;;;;;;;;;
2206;;;;;;;;;;;;;
2215;;;;;;;;;;;;;
2224;;;;;;;;;;;;;
2233;;;;;;;;;;;;;
2242;;;;;;;;;;;;;
2251;;;;;;;;;;;;;
2260;;;;;;;;;;;;;
2269;;;;;;;;;;;;;
2278;;;;;;;;;;;;;
2287;;;;;;;;;;;;;
2296;;;;;;;;;;;;;
2305;;;;;;;;;;;;;
2314;;;;;;;;;;;;;
2323;;;;;;;;;;;;;
2332;;;;;;;;;;;;;
2341;;;;;;;;;;;;;
2350;;;;;;;;;;;;;
2359;;;;;;;;;;;;;
2368;;;;;;;;;;;;;
2377;;;;;;;;;;;;;
2386;;;;;;;;;;;;;
2395;;;;;;;;;;;;;
2404;;;;;;;;;;;;;
2413;;;;;;;;;;;;;
2422;;;;;;;;;;;;;
2431;;;;;;;;;;;;;
2440;;;;;;;;;;;;;
2449;;;;;;;;;;;;;
2458;;;;;;;;;;;;;
2467;;;;;;;;;;;;;
2476;;;;;;;;;;;;;
2485;;;;;;;;;;;;;
2494;;;;;;;;;;;;;
2503;;;;;;;;;;;;;
2512;;;;;;;;;;;;;
2521;;;;;;;;;;;;;
2530;;;;;;;;;;;;;
2536;;;;;;;;;;;;;