File: carbon_superP/O2_1800rpm.txt
Index;Column 2 (V);Column 3 (V);Column 4 (V);Column 5 (V);Column 6 (V/s);Column 7 (V);Time (s);Potential applied (V);WE(1).Current (A);WE(1).Potential (V);Scan;Column 13 (RPM);ω (rad/s)
1;0.1;0.11;-0.9;-0.01;0.01;-0.00244;16214.9;-0.014801;-9.96399e-07;-0.0144958;3;1800;188.496
10;;;;;;;16217.1;-0.0367737;-1.09589e-05;-0.0364288;3;;
19;;;;;;;16219.3;-0.0587463;-6.27747e-05;-0.0583801;3;;
28;;;;;;;16221.5;-0.080719;-0.000190308;-0.0801392;3;;
37;;;;;;;16223.7;-0.102692;-0.000369293;-0.102264;3;;
46;;;;;;;16225.9;-0.124664;-0.000552979;-0.124207;3;;
55;;;;;;;16228.1;-0.146637;-0.000690918;-0.146179;3;;
64;;;;;;;16230.3;-0.16861;-0.000764465;-0.16806;3;;
73;;;;;;;16232.5;-0.190582;-0.000813293;-0.190002;3;;
82;;;;;;;16234.7;-0.212555;-0.000845642;-0.211884;3;;
91;;;;;;;16236.8;-0.234528;-0.000869141;-0.233887;3;;
100;;;;;;;16239;-0.2565;-0.000882568;-0.255798;3;;
109;;;;;;;16241.2;-0.278473;-0.00089325;-0.277649;3;;
118;;;;;;;16243.4;-0.300446;-0.000901794;-0.299591;3;;
127;;;;;;;16245.6;-0.322418;-0.000908813;-0.321564;3;;
136;;;;;;;16247.8;-0.344391;-0.000911255;-0.343506;3;;
145;;;;;;;16250;-0.366364;-0.000915222;-0.365448;3;;
154;;;;;;;16252.2;-0.388336;-0.000919495;-0.387421;3;;
163;;;;;;;16254.4;-0.410309;-0.000921631;-0.409302;3;;
172;;;;;;;16256.6;-0.432281;-0.000924988;-0.431213;3;;
181;;;;;;;16258.8;-0.454254;-0.00092804;-0.453094;3;;
190;;;;;;;16261;-0.476227;-0.000930176;-0.475098;3;;
199;;;;;;;16263.2;-0.498199;-0.000932617;-0.49704;3;;
208;;;;;;;16265.4;-0.520172;-0.000935364;-0.518951;3;;
217;;;;;;;16267.6;-0.542145;-0.000935364;-0.540863;3;;
226;;;;;;;16269.8;-0.564117;-0.000944519;-0.562775;3;;
235;;;;;;;16272;-0.58609;-0.000949707;-0.584808;3;;
244;;;;;;;16274.2;-0.608063;-0.000956116;-0.606689;3;;
253;;;;;;;16276.4;-0.630035;-0.000961914;-0.628693;3;;
262;;;;;;;16278.6;-0.652008;-0.000970459;-0.650635;3;;
271;;;;;;;16280.8;-0.673981;-0.000975647;-0.672607;3;;
280;;;;;;;16283;-0.695953;-0.000980835;-0.694519;3;;
289;;;;;;;16285.2;-0.717926;-0.000983582;-0.716522;3;;
298;;;;;;;16287.4;-0.739899;-0.000986328;-0.738556;3;;
307;;;;;;;16289.6;-0.761871;-0.000984497;-0.761108;3;;
316;;;;;;;16291.8;-0.783844;-0.000983887;-0.783081;3;;
325;;;;;;;16294;-0.805817;-0.000980225;-0.805664;3;;
334;;;;;;;16296.2;-0.827789;-0.000975647;-0.827026;3;;
343;;;;;;;16298.4;-0.849762;-0.000967712;-0.848083;3;;
352;;;;;;;16300.6;-0.871735;-0.000957642;-0.870361;3;;
361;;;;;;;16302.8;-0.893707;-0.000950012;-0.892944;3;;
370;;;;;;;16305;-0.886383;-0.000948181;-0.885315;3;;
379;;;;;;;16307.2;-0.86441;-0.000953674;-0.863647;3;;
388;;;;;;;16309.4;-0.842438;-0.000959778;-0.84198;3;;
397;;;;;;;16311.6;-0.820465;-0.000965881;-0.8203125;3;;
406;;;;;;;16313.8;-0.798492;-0.000968018;-0.797424;3;;
415;;;;;;;16315.9;-0.77652;-0.000970764;-0.776062;3;;
424;;;;;;;16318.1;-0.754547;-0.00097168;-0.754089;3;;
433;;;;;;;16320.3;-0.732574;-0.00097229;-0.731232;3;;
442;;;;;;;16322.5;-0.710602;-0.000968933;-0.709198;3;;
451;;;;;;;16324.7;-0.688629;-0.000964355;-0.687195;3;;
460;;;;;;;16326.9;-0.666656;-0.000961304;-0.665283;3;;
469;;;;;;;16329.1;-0.644684;-0.000956116;-0.643311;3;;
478;;;;;;;16331.3;-0.622711;-0.000949707;-0.621338;3;;
487;;;;;;;16333.5;-0.600739;-0.000944214;-0.599396;3;;
496;;;;;;;16335.7;-0.578766;-0.000939026;-0.577484;3;;
505;;;;;;;16337.9;-0.556793;-0.000935974;-0.555511;3;;
514;;;;;;;16340.1;-0.534821;-0.000931091;-0.533569;3;;
523;;;;;;;16342.3;-0.512848;-0.000928345;-0.511688;3;;
532;;;;;;;16344.5;-0.490875;-0.000925293;-0.489746;3;;
541;;;;;;;16346.7;-0.468903;-0.000922852;-0.467773;3;;
550;;;;;;;16348.9;-0.44693;-0.000920105;-0.445862;3;;
559;;;;;;;16351.1;-0.424957;-0.000918274;-0.42395;3;;
568;;;;;;;16353.3;-0.402985;-0.000914917;-0.401978;3;;
577;;;;;;;16355.5;-0.381012;-0.00091217;-0.380035;3;;
586;;;;;;;16357.7;-0.359039;-0.000907898;-0.358154;3;;
595;;;;;;;16359.9;-0.337067;-0.000904541;-0.336182;3;;
604;;;;;;;16362.1;-0.315094;-0.000898132;-0.314301;3;;
613;;;;;;;16364.3;-0.293121;-0.000892944;-0.292267;3;;
622;;;;;;;16366.5;-0.271149;-0.000884094;-0.270386;3;;
631;;;;;;;16368.7;-0.249176;-0.000874329;-0.248505;3;;
640;;;;;;;16370.9;-0.227203;-0.00085907;-0.226501;3;;
649;;;;;;;16373.1;-0.205231;-0.000834656;-0.20459;3;;
658;;;;;;;16375.3;-0.183258;-0.000794678;-0.182678;3;;
667;;;;;;;16377.5;-0.161285;-0.000724182;-0.160736;3;;
676;;;;;;;16379.7;-0.139313;-0.000608826;-0.138824;3;;
685;;;;;;;16381.9;-0.11734;-0.000453156;-0.116852;3;;
694;;;;;;;16384.1;-0.0953674;-0.000281219;-0.0949402;3;;
703;;;;;;;16386.3;-0.0733948;-0.000129669;-0.0730591;3;;
712;;;;;;;16388.5;-0.0514221;-3.56964e-05;-0.0510864;3;;
721;;;;;;;16390.7;-0.0294495;-4.47205e-06;-0.0291077;3;;
730;;;;;;;16392.9;-0.00747681;7.26624e-07;-0.0072052;3;;
739;;;;;;;16395.1;0.0144958;1.37695e-06;0.0147614;3;;
748;;;;;;;16397.2;0.0364685;1.51306e-06;0.0367554;3;;
757;;;;;;;16399.4;0.0584412;1.62445e-06;0.0584412;3;;
766;;;;;;;16401.6;0.0804138;1.74683e-06;0.0804443;3;;
775;;;;;;;16403.8;0.102386;1.94946e-06;0.102295;3;;
784;;;;;;;16406;0.0999451;1.39465e-06;0.099884;3;;
793;;;;;;;16408.2;0.0779724;9.88159e-07;0.0779724;3;;
802;;;;;;;16410.4;0.0559998;7.7301e-07;0.0559387;3;;
811;;;;;;;16412.6;0.0340271;6.13403e-07;0.0342957;3;;
820;;;;;;;16414.8;0.0120544;4.11377e-07;0.0123566;3;;
829;;;;;;;16417;-0.00991821;-4.12598e-07;-0.00960083;3;;
838;;;;;;;;;;;;;
847;;;;;;;;;;;;;
856;;;;;;;;;;;;;
865;;;;;;;;;;;;;
874;;;;;;;;;;;;;
883;;;;;;;;;;;;;
892;;;;;;;;;;;;;
901;;;;;;;;;;;;;
910;;;;;;;;;;;;;
919;;;;;;;;;;;;;
928;;;;;;;;;;;;;
937;;;;;;;;;;;;;
946;;;;;;;;;;;;;
955;;;;;;;;;;;;;
964;;;;;;;;;;;;;
973;;;;;;;;;;;;;
982;;;;;;;;;;;;;
991;;;;;;;;;;;;;
1000;;;;;;;;;;;;;
1009;;;;;;;;;;;;;
1018;;;;;;;;;;;;;
1027;;;;;;;;;;;;;
1036;;;;;;;;;;;;;
1045;;;;;;;;;;;;;
1054;;;;;;;;;;;;;
1063;;;;;;;;;;;;;
1072;;;;;;;;;;;;;
1081;;;;;;;;;;;;;
1090;;;;;;;;;;;;;
1099;;;;;;;;;;;;;
1108;;;;;;;;;;;;;
1117;;;;;;;;;;;;;
1126;;;;;;;;;;;;;
1135;;;;;;;;;;;;;
1144;;;;;;;;;;;;;
1153;;;;;;;;;;;;;
1162;;;;;;;;;;;;;
1171;;;;;;;;;;;;;
1180;;;;;;;;;;;;;
1189;;;;;;;;;;;;;
1198;;;;;;;;;;;;;
1207;;;;;;;;;;;;;
1216;;;;;;;;;;;;;
1225;;;;;;;;;;;;;
1234;;;;;;;;;;;;;
1243;;;;;;;;;;;;;
1252;;;;;;;;;;;;;
1261;;;;;;;;;;;;;
1270;;;;;;;;;;;;;
1279;;;;;;;;;;;;;
1288;;;;;;;;;;;;;
1297;;;;;;;;;;;;;
1306;;;;;;;;;;;;;
1315;;;;;;;;;;;;;
1324;;;;;;;;;;;;;
1333;;;;;;;;;;;;;
1342;;;;;;;;;;;;;
1351;;;;;;;;;;;;;
1360;;;;;;;;;;;;;
1369;;;;;;;;;;;;;
1378;;;;;;;;;;;;;
1387;;;;;;;;;;;;;
1396;;;;;;;;;;;;;
1405;;;;;;;;;;;;;
1414;;;;;;;;;;;;;
1423;;;;;;;;;;;;;
1432;;;;;;;;;;;;;
1441;;;;;;;;;;;;;
1450;;;;;;;;;;;;;
1459;;;;;;;;;;;;;
1468;;;;;;;;;;;;;
1477;;;;;;;;;;;;;
1486;;;;;;;;;;;;;
1495;;;;;;;;;;;;;
1504;;;;;;;;;;;;;
1513;;;;;;;;;;;;;
1522;;;;;;;;;;;;;
1531;;;;;;;;;;;;;
1540;;;;;;;;;;;;;
1549;;;;;;;;;;;;;
1558;;;;;;;;;;;;;
1567;;;;;;;;;;;;;
1576;;;;;;;;;;;;;
1585;;;;;;;;;;;;;
1594;;;;;;;;;;;;;
1603;;;;;;;;;;;;;
1612;;;;;;;;;;;;;
1621;;;;;;;;;;;;;
1630;;;;;;;;;;;;;
1639;;;;;;;;;;;;;
1648;;;;;;;;;;;;;
1657;;;;;;;;;;;;;
1666;;;;;;;;;;;;;
1675;;;;;;;;;;;;;
1684;;;;;;;;;;;;;
1693;;;;;;;;;;;;;
1702;;;;;;;;;;;;;
1711;;;;;;;;;;;;;
1720;;;;;;;;;;;;;
1729;;;;;;;;;;;;;
1738;;;;;;;;;;;;;
1747;;;;;;;;;;;;;
1756;;;;;;;;;;;;;
1765;;;;;;;;;;;;;
1774;;;;;;;;;;;;;
1783;;;;;;;;;;;;;
1792;;;;;;;;;;;;;
1801;;;;;;;;;;;;;
1810;;;;;;;;;;;;;
1819;;;;;;;;;;;;;
1828;;;;;;;;;;;;;
1837;;;;;;;;;;;;;
1846;;;;;;;;;;;;;
1855;;;;;;;;;;;;;
1864;;;;;;;;;;;;;
1873;;;;;;;;;;;;;
1882;;;;;;;;;;;;;
1891;;;;;;;;;;;;;
1900;;;;;;;;;;;;;
1909;;;;;;;;;;;;;
1918;;;;;;;;;;;;;
1927;;;;;;;;;;;;;
1936;;;;;;;;;;;;;
1945;;;;;;;;;;;;;
1954;;;;;;;;;;;;;
1963;;;;;;;;;;;;;
1972;;;;;;;;;;;;;
1981;;;;;;;;;;;;;
1990;;;;;;;;;;;;;
1999;;;;;;;;;;;;;
2008;;;;;;;;;;;;;
2017;;;;;;;;;;;;;
2026;;;;;;;;;;;;;
2035;;;;;;;;;;;;;
2044;;;;;;;;;;;;;
2053;;;;;;;;;;;;;
2062;;;;;;;;;;;;;
2071;;;;;;;;;;;;;
2080;;;;;;;;;;;;;
2089;;;;;;;;;;;;;
2098;;;;;;;;;;;;;
2107;;;;;;;;;;;;;
2116;;;;;;;;;;;;;
2125;;;;;;;;;;;;;
2134;;;;;;;;;;;;;
2143;;;;;;;;;;;;;
2152;;;;;;;;;;;;;
2161;;;;;;;;;;;;;
2170;;;;;;;;;;;;;
2179;;;;;;;;;;;;;
2188;;;;;;;;;;;;;
2197;;;;;;;;;;;;;
2206;;;;;;;;;;;;;
2215;;;;;;;;;;;;;
2224;;;;;;;;;;;;;
2233;;;;;;;;;;;;;
2242;;;;;;;;;;;;;
2251;;;;;;;;;;;;;
2260;;;;;;;;;;;;;
2269;;;;;;;;;;;;;
2278;;;;;;;;;;;;;
2287;;;;;;;;;;;;;
2296;;;;;;;;;;;;;
2305;;;;;;;;;;;;;
2314;;;;;;;;;;;;;
2323;;;;;;;;;;;;;
2332;;;;;;;;;;;;;
2341;;;;;;;;;;;;;
2350;;;;;;;;;;;;;
2359;;;;;;;;;;;;;
2368;;;;;;;;;;;;;
2377;;;;;;;;;;;;;
2386;;;;;;;;;;;;;
2395;;;;;;;;;;;;;
2404;;;;;;;;;;;;;
2413;;;;;;;;;;;;;
2422;;;;;;;;;;;;;
2431;;;;;;;;;;;;;
2440;;;;;;;;;;;;;
2449;;;;;;;;;;;;;
2458;;;;;;;;;;;;;
2467;;;;;;;;;;;;;
2476;;;;;;;;;;;;;
2485;;;;;;;;;;;;;
2494;;;;;;;;;;;;;
2503;;;;;;;;;;;;;
2512;;;;;;;;;;;;;
2521;;;;;;;;;;;;;
2530;;;;;;;;;;;;;
2536;;;;;;;;;;;;;